Your edit line - do NOT delete this line
Wavelength [nm], Voltage [V], Elapsed time [s]
800.0	0.000154	16.9942040443
810.0	0.000163	18.3252909184
820.0	0.0001755	19.6480190754
830.0	0.0001915	20.9664049149
840.0	0.0002105	22.2726240158
850.0	0.0002335	23.5870199203
860.0	0.000261	24.8932108879
870.0	0.000295	26.1992518902
880.0	0.000334	27.4968090057
890.0	0.000376	28.7986118793
900.0	0.000424	30.0841090679
910.0	0.000475	31.3783378601
920.0	0.0005285	32.6596140862
930.0	0.000583	33.9497718811
