Your edit line - do NOT delete this line
Wavelength [nm], Voltage [V], Elapsed time [s]
800.0	0.0002085	16.0950000286
800.0	0.000205	16.1260001659
800.0	0.0002015	16.1730000973
800.0	0.0001985	16.2039999962
800.0	0.0001955	16.2510001659
800.0	0.0001935	16.2980000973
800.0	0.000191	16.3289999962
800.0	0.000189	16.3760001659
800.0	0.000188	16.4230000973
800.0	0.0001865	16.4539999962
800.0	0.000186	16.5010001659
800.0	0.000185	16.5480000973
800.0	0.000184	16.5789999962
800.0	0.0001825	16.6260001659
800.0	0.0001815	16.6570000648
800.0	0.0001815	16.7039999962
800.0	0.000181	16.7510001659
800.0	0.0001805	16.7820000648
800.0	0.00018	16.8289999962
800.0	0.00018	16.8760001659
800.0	0.000179	16.9070000648
800.0	0.000179	16.9539999962
800.0	0.0001785	16.9850001335
800.0	0.0001785	17.0320000648
800.0	0.0001785	17.0789999962
810.0	0.0001805	17.4390001297
810.0	0.000181	17.4700000286
810.0	0.0001825	17.5170001984
810.0	0.000183	17.5640001297
810.0	0.000184	17.5950000286
810.0	0.0001855	17.6420001984
810.0	0.0001855	17.6890001297
810.0	0.0001865	17.7200000286
810.0	0.0001875	17.7670001984
810.0	0.000188	17.7980000973
810.0	0.0001885	17.8450000286
810.0	0.000189	17.8920001984
810.0	0.000189	17.9230000973
810.0	0.0001905	17.9700000286
810.0	0.000191	18.0170001984
810.0	0.0001905	18.0480000973
810.0	0.0001915	18.0950000286
810.0	0.000191	18.1260001659
810.0	0.0001915	18.1730000973
810.0	0.0001925	18.2200000286
810.0	0.0001915	18.2510001659
810.0	0.0001915	18.2980000973
810.0	0.0001915	18.3450000286
810.0	0.0001925	18.3760001659
810.0	0.0001925	18.4230000973
820.0	0.0001955	18.7670001984
820.0	0.000196	18.8140001297
820.0	0.000198	18.8600001335
820.0	0.0001985	18.8920001984
820.0	0.0002005	18.9390001297
820.0	0.000201	18.9850001335
820.0	0.000203	19.0170001984
820.0	0.0002035	19.0640001297
820.0	0.000205	19.0950000286
820.0	0.0002055	19.1420001984
820.0	0.0002055	19.1890001297
820.0	0.000206	19.2200000286
820.0	0.000206	19.2670001984
820.0	0.0002065	19.3140001297
820.0	0.0002065	19.3450000286
820.0	0.0002075	19.3920001984
820.0	0.0002065	19.4390001297
820.0	0.000208	19.4700000286
820.0	0.000208	19.5170001984
820.0	0.0002075	19.5480000973
820.0	0.0002075	19.5950000286
820.0	0.0002085	19.6420001984
820.0	0.0002085	19.6730000973
820.0	0.0002085	19.7200000286
820.0	0.000208	19.7670001984
830.0	0.0002115	20.111000061
830.0	0.0002135	20.1420001984
830.0	0.000215	20.1890001297
830.0	0.0002155	20.236000061
830.0	0.0002175	20.2670001984
830.0	0.000218	20.3140001297
830.0	0.000219	20.361000061
830.0	0.00022	20.3920001984
830.0	0.0002205	20.4390001297
830.0	0.000221	20.486000061
830.0	0.0002215	20.5170001984
830.0	0.0002225	20.5640001297
830.0	0.000223	20.5950000286
830.0	0.0002225	20.6420001984
830.0	0.000223	20.6890001297
830.0	0.000223	20.7200000286
830.0	0.0002235	20.7670001984
830.0	0.0002235	20.8140001297
830.0	0.0002235	20.8450000286
830.0	0.000224	20.8920001984
830.0	0.000224	20.9390001297
830.0	0.000225	20.9700000286
830.0	0.000225	21.0170001984
830.0	0.0002255	21.0480000973
830.0	0.0002255	21.0950000286
840.0	0.0002315	21.4390001297
840.0	0.0002335	21.4700000286
840.0	0.0002355	21.5170001984
840.0	0.0002375	21.5480000973
840.0	0.000239	21.5950000286
840.0	0.0002405	21.6420001984
840.0	0.0002425	21.6730000973
840.0	0.000243	21.7200000286
840.0	0.000244	21.7670001984
840.0	0.000245	21.7980000973
840.0	0.0002455	21.8450000286
840.0	0.000246	21.8920001984
840.0	0.0002465	21.9230000973
840.0	0.0002475	21.9700000286
840.0	0.000248	22.0170001984
840.0	0.000248	22.0480000973
840.0	0.0002485	22.0950000286
840.0	0.0002485	22.1420001984
840.0	0.0002485	22.1730000973
840.0	0.000249	22.2200000286
840.0	0.000249	22.2510001659
840.0	0.0002505	22.2980000973
840.0	0.0002505	22.3450000286
840.0	0.000251	22.3760001659
840.0	0.0002515	22.4230000973
850.0	0.0002585	22.7510001659
850.0	0.000261	22.7980000973
850.0	0.0002635	22.8289999962
850.0	0.000266	22.8760001659
850.0	0.0002685	22.9230000973
850.0	0.000269	22.9539999962
850.0	0.0002715	23.0010001659
850.0	0.0002735	23.0480000973
850.0	0.000274	23.0789999962
850.0	0.0002755	23.1260001659
850.0	0.0002765	23.1730000973
850.0	0.0002775	23.2039999962
850.0	0.0002785	23.2510001659
850.0	0.0002785	23.2829999924
850.0	0.000279	23.3289999962
850.0	0.000279	23.3760001659
850.0	0.0002805	23.4079999924
850.0	0.0002805	23.4539999962
850.0	0.000281	23.5010001659
850.0	0.000281	23.5329999924
850.0	0.000281	23.5789999962
850.0	0.000281	23.611000061
850.0	0.0002805	23.6579999924
850.0	0.0002805	23.7039999962
860.0	0.000289	24.0170001984
860.0	0.000293	24.0640001297
860.0	0.0002955	24.111000061
860.0	0.000298	24.1420001984
860.0	0.0003	24.1890001297
860.0	0.0003025	24.236000061
860.0	0.000305	24.2670001984
860.0	0.0003065	24.3140001297
860.0	0.0003085	24.3450000286
860.0	0.000309	24.3920001984
860.0	0.000311	24.4390001297
860.0	0.0003125	24.486000061
860.0	0.0003135	24.5170001984
860.0	0.000314	24.5640001297
860.0	0.0003155	24.5950000286
860.0	0.0003165	24.6420001984
860.0	0.0003165	24.6890001297
860.0	0.0003175	24.7200000286
860.0	0.0003175	24.7670001984
860.0	0.0003175	24.8140001297
860.0	0.000318	24.8450000286
860.0	0.000318	24.8920001984
860.0	0.000319	24.9230000973
860.0	0.0003185	24.9700000286
860.0	0.000319	25.0170001984
870.0	0.0003285	25.3300001621
870.0	0.0003325	25.3760001659
870.0	0.000336	25.4230000973
870.0	0.0003385	25.4550001621
870.0	0.0003405	25.5010001659
870.0	0.0003435	25.5329999924
870.0	0.0003455	25.5800001621
870.0	0.0003475	25.6260001659
870.0	0.00035	25.6579999924
870.0	0.0003515	25.7050001621
870.0	0.0003535	25.7510001659
870.0	0.000354	25.7829999924
870.0	0.0003555	25.8300001621
870.0	0.0003575	25.861000061
870.0	0.000358	25.9079999924
870.0	0.0003585	25.9550001621
870.0	0.00036	25.986000061
870.0	0.00036	26.0329999924
870.0	0.0003605	26.0800001621
870.0	0.000361	26.111000061
870.0	0.000361	26.1579999924
870.0	0.000361	26.1890001297
870.0	0.0003615	26.236000061
870.0	0.0003625	26.2829999924
870.0	0.000363	26.3140001297
880.0	0.000373	26.6420001984
880.0	0.0003765	26.6730000973
880.0	0.0003805	26.7200000286
880.0	0.0003835	26.7520000935
880.0	0.0003875	26.7980000973
880.0	0.00039	26.8450000286
880.0	0.000393	26.8770000935
880.0	0.0003955	26.9230000973
880.0	0.000398	26.9700000286
880.0	0.0004	27.0020000935
880.0	0.0004015	27.0480000973
880.0	0.000403	27.0950000286
880.0	0.000405	27.1270000935
880.0	0.000405	27.1730000973
880.0	0.000406	27.2050001621
880.0	0.0004065	27.2520000935
880.0	0.0004075	27.2980000973
880.0	0.0004075	27.3300001621
880.0	0.000408	27.3770000935
880.0	0.0004085	27.4230000973
880.0	0.0004085	27.4550001621
880.0	0.000409	27.5020000935
880.0	0.00041	27.5329999924
880.0	0.00041	27.5800001621
880.0	0.00041	27.6270000935
890.0	0.0004225	27.9390001297
890.0	0.0004275	27.9700000286
890.0	0.0004315	28.0170001984
890.0	0.000435	28.0640001297
890.0	0.0004385	28.0950000286
890.0	0.0004425	28.1420001984
890.0	0.000445	28.1730000973
890.0	0.0004475	28.2200000286
890.0	0.0004505	28.2670001984
890.0	0.0004525	28.2990000248
890.0	0.0004535	28.3450000286
890.0	0.000456	28.3920001984
890.0	0.0004575	28.4240000248
890.0	0.00046	28.4700000286
890.0	0.0004605	28.5020000935
890.0	0.0004615	28.5490000248
890.0	0.0004615	28.5950000286
890.0	0.0004635	28.6270000935
890.0	0.0004635	28.6740000248
890.0	0.000465	28.7200000286
890.0	0.000465	28.7670001984
890.0	0.0004655	28.7990000248
890.0	0.000466	28.8450000286
890.0	0.0004665	28.8770000935
890.0	0.000466	28.9240000248
900.0	0.0004775	29.236000061
900.0	0.0004825	29.2670001984
900.0	0.0004875	29.3140001297
900.0	0.0004915	29.361000061
900.0	0.000495	29.3920001984
900.0	0.000499	29.4390001297
900.0	0.0005025	29.4700000286
900.0	0.0005055	29.5170001984
900.0	0.000508	29.5640001297
900.0	0.000511	29.5950000286
900.0	0.000513	29.6420001984
900.0	0.000515	29.6890001297
900.0	0.0005165	29.7200000286
900.0	0.000518	29.7670001984
900.0	0.0005185	29.8140001297
900.0	0.000519	29.8450000286
900.0	0.0005205	29.8920001984
900.0	0.000521	29.9240000248
900.0	0.0005225	29.9700000286
900.0	0.0005215	30.0170001984
900.0	0.000523	30.0490000248
900.0	0.000523	30.0950000286
900.0	0.000524	30.1420001984
900.0	0.000525	30.1740000248
900.0	0.000526	30.2200000286
910.0	0.0005385	30.5329999924
910.0	0.0005435	30.5640001297
910.0	0.0005485	30.611000061
910.0	0.0005525	30.6420001984
910.0	0.0005575	30.6890001297
910.0	0.000561	30.736000061
910.0	0.000565	30.7670001984
910.0	0.000568	30.8140001297
910.0	0.000571	30.861000061
910.0	0.0005735	30.8920001984
910.0	0.0005755	30.9390001297
910.0	0.0005765	30.9710001945
910.0	0.0005775	31.0170001984
910.0	0.0005785	31.0640001297
910.0	0.00058	31.0960001945
910.0	0.000581	31.1420001984
910.0	0.000583	31.1890001297
910.0	0.000584	31.2210001945
910.0	0.0005855	31.2670001984
910.0	0.0005855	31.2990000248
910.0	0.000586	31.3460001945
910.0	0.000586	31.3920001984
910.0	0.000586	31.4240000248
910.0	0.000586	31.4710001945
910.0	0.0005865	31.5170001984
920.0	0.0006	31.8140001297
920.0	0.000605	31.861000061
920.0	0.000609	31.8920001984
920.0	0.000615	31.9390001297
920.0	0.000619	31.986000061
920.0	0.0006225	32.0170001984
920.0	0.000626	32.0640001297
920.0	0.000629	32.0960001945
920.0	0.0006315	32.1420001984
920.0	0.000635	32.1890001297
920.0	0.0006375	32.2210001945
920.0	0.000639	32.2670001984
920.0	0.0006405	32.3140001297
920.0	0.0006425	32.3460001945
920.0	0.0006435	32.3920001984
920.0	0.000645	32.4240000248
920.0	0.000646	32.4710001945
920.0	0.0006465	32.5170001984
920.0	0.000648	32.5490000248
920.0	0.000649	32.5960001945
920.0	0.00065	32.6430001259
920.0	0.000651	32.6740000248
920.0	0.000651	32.7210001945
920.0	0.000651	32.7680001259
930.0	0.0006625	33.0640001297
930.0	0.000668	33.0960001945
930.0	0.000673	33.1430001259
930.0	0.0006775	33.1890001297
930.0	0.000683	33.2210001945
930.0	0.0006875	33.2680001259
930.0	0.0006905	33.2990000248
930.0	0.0006935	33.3460001945
930.0	0.000696	33.3930001259
930.0	0.0006985	33.4240000248
930.0	0.0007	33.4710001945
930.0	0.000703	33.5180001259
930.0	0.000704	33.5490000248
930.0	0.0007065	33.5960001945
930.0	0.0007085	33.6430001259
930.0	0.00071	33.6740000248
930.0	0.0007105	33.7210001945
930.0	0.0007115	33.7520000935
930.0	0.0007115	33.7990000248
930.0	0.0007125	33.8460001945
930.0	0.0007125	33.8770000935
930.0	0.000714	33.9240000248
930.0	0.000714	33.9710001945
930.0	0.000715	34.0020000935
930.0	0.000715	34.0490000248
940.0	0.000729	34.3460001945
940.0	0.000735	34.3770000935
940.0	0.000739	34.4240000248
940.0	0.0007455	34.4710001945
940.0	0.00075	34.5020000935
940.0	0.000755	34.5490000248
940.0	0.000758	34.5960001945
940.0	0.0007615	34.6270000935
940.0	0.0007635	34.6740000248
940.0	0.0007665	34.7050001621
940.0	0.000768	34.7520000935
940.0	0.00077	34.7990000248
940.0	0.0007705	34.8300001621
940.0	0.000773	34.8770000935
940.0	0.0007735	34.9240000248
940.0	0.0007755	34.9550001621
940.0	0.0007765	35.0020000935
940.0	0.0007775	35.0329999924
940.0	0.000778	35.0800001621
940.0	0.0007775	35.1270000935
940.0	0.000778	35.1579999924
940.0	0.000778	35.2050001621
940.0	0.0007785	35.2520000935
940.0	0.0007785	35.2829999924
940.0	0.000779	35.3300001621
950.0	0.000793	35.6270000935
950.0	0.0008	35.6579999924
950.0	0.000805	35.7050001621
950.0	0.000809	35.736000061
950.0	0.0008135	35.7829999924
950.0	0.000818	35.8300001621
950.0	0.0008225	35.861000061
950.0	0.000826	35.9079999924
950.0	0.0008285	35.9550001621
950.0	0.000831	35.986000061
950.0	0.000833	36.0329999924
950.0	0.000835	36.0650000572
950.0	0.0008365	36.111000061
950.0	0.0008385	36.1579999924
950.0	0.0008405	36.1900000572
950.0	0.0008415	36.236000061
950.0	0.000843	36.2829999924
950.0	0.0008435	36.3150000572
950.0	0.000845	36.361000061
950.0	0.0008455	36.3930001259
950.0	0.0008465	36.4400000572
950.0	0.0008465	36.486000061
950.0	0.0008485	36.5180001259
950.0	0.000849	36.5650000572
950.0	0.0008505	36.611000061
960.0	0.000859	36.8930001259
960.0	0.000864	36.9400000572
960.0	0.000869	36.9710001945
960.0	0.000875	37.0180001259
960.0	0.0008805	37.0490000248
960.0	0.000884	37.0960001945
960.0	0.0008875	37.1430001259
960.0	0.000891	37.1900000572
960.0	0.000894	37.2210001945
960.0	0.000896	37.2680001259
960.0	0.0009	37.3150000572
960.0	0.0009025	37.3460001945
960.0	0.000905	37.3930001259
960.0	0.0009055	37.4240000248
960.0	0.0009075	37.4710001945
960.0	0.0009085	37.5180001259
960.0	0.0009105	37.5490000248
960.0	0.000911	37.5960001945
960.0	0.0009115	37.6430001259
960.0	0.0009115	37.6740000248
960.0	0.0009125	37.7210001945
960.0	0.000913	37.7520000935
960.0	0.000913	37.7990000248
960.0	0.0009125	37.8460001945
970.0	0.000926	38.1270000935
970.0	0.000931	38.1740000248
970.0	0.000936	38.2050001621
970.0	0.0009405	38.2520000935
970.0	0.000945	38.2990000248
970.0	0.00095	38.3460001945
970.0	0.000953	38.3770000935
970.0	0.0009575	38.4240000248
970.0	0.0009585	38.4550001621
970.0	0.000961	38.5020000935
970.0	0.0009635	38.5490000248
970.0	0.0009665	38.5800001621
970.0	0.000968	38.6270000935
970.0	0.00097	38.6740000248
970.0	0.000969	38.7050001621
970.0	0.00097	38.7520000935
970.0	0.0009705	38.7829999924
970.0	0.000971	38.8300001621
970.0	0.0009715	38.8770000935
970.0	0.000973	38.9079999924
970.0	0.0009735	38.9550001621
970.0	0.000974	39.0020000935
970.0	0.000974	39.0329999924
970.0	0.000975	39.0800001621
980.0	0.0009855	39.3619999886
980.0	0.000988	39.4090001583
980.0	0.000993	39.4400000572
980.0	0.000998	39.4869999886
980.0	0.0010035	39.5180001259
980.0	0.001008	39.5650000572
980.0	0.0010125	39.6119999886
980.0	0.001016	39.6430001259
980.0	0.0010205	39.6900000572
980.0	0.0010235	39.7369999886
980.0	0.0010275	39.7680001259
980.0	0.0010305	39.8150000572
980.0	0.001033	39.8460001945
980.0	0.001035	39.8930001259
980.0	0.001036	39.9400000572
980.0	0.0010375	39.9710001945
980.0	0.0010385	40.0180001259
980.0	0.0010405	40.0650000572
980.0	0.0010415	40.0960001945
980.0	0.0010415	40.1430001259
980.0	0.0010415	40.1900000572
980.0	0.0010425	40.2210001945
980.0	0.0010415	40.2680001259
980.0	0.001043	40.2990000248
980.0	0.001043	40.3460001945
990.0	0.0010555	40.6270000935
990.0	0.001059	40.6740000248
990.0	0.001064	40.7050001621
990.0	0.0010685	40.7520000935
990.0	0.0010735	40.7990000248
990.0	0.001076	40.8300001621
990.0	0.001078	40.8770000935
990.0	0.00108	40.9240000248
990.0	0.001083	40.9550001621
990.0	0.0010855	41.0020000935
990.0	0.0010885	41.0340001583
990.0	0.0010905	41.0800001621
990.0	0.0010925	41.1270000935
990.0	0.001094	41.1590001583
990.0	0.0010975	41.2050001621
990.0	0.0011005	41.2520000935
990.0	0.0011025	41.2840001583
990.0	0.001103	41.3310000896
990.0	0.001103	41.3770000935
990.0	0.001104	41.4090001583
990.0	0.001104	41.4560000896
990.0	0.001105	41.4869999886
990.0	0.001105	41.5340001583
990.0	0.0011065	41.5810000896
1000.0	0.0011175	41.8619999886
1000.0	0.0011235	41.8930001259
1000.0	0.001128	41.9400000572
1000.0	0.0011335	41.9869999886
1000.0	0.0011365	42.0180001259
1000.0	0.0011405	42.0650000572
1000.0	0.001143	42.1119999886
1000.0	0.0011455	42.1430001259
1000.0	0.0011485	42.1900000572
1000.0	0.0011515	42.2210001945
1000.0	0.001154	42.2680001259
1000.0	0.001156	42.3150000572
1000.0	0.001155	42.3460001945
1000.0	0.0011535	42.3930001259
1000.0	0.0011535	42.4400000572
1000.0	0.001155	42.4710001945
1000.0	0.0011585	42.5180001259
1000.0	0.00116	42.5490000248
1000.0	0.0011625	42.5960001945
1000.0	0.001164	42.6430001259
1000.0	0.0011655	42.6740000248
1000.0	0.001166	42.7210001945
1000.0	0.0011675	42.7680001259
1000.0	0.0011675	42.7990000248
1000.0	0.001168	42.8460001945
1010.0	0.001176	43.1270000935
1010.0	0.0011815	43.1740000248
1010.0	0.001186	43.2060000896
1010.0	0.0011925	43.2520000935
1010.0	0.001196	43.2990000248
1010.0	0.001201	43.3310000896
1010.0	0.001204	43.3770000935
1010.0	0.001206	43.4090001583
1010.0	0.0012085	43.4560000896
1010.0	0.00121	43.503000021
1010.0	0.0012125	43.5490000248
1010.0	0.0012125	43.5810000896
1010.0	0.001214	43.628000021
1010.0	0.001214	43.6590001583
1010.0	0.0012175	43.7060000896
1010.0	0.0012185	43.753000021
1010.0	0.0012205	43.7840001583
1010.0	0.001221	43.8310000896
1010.0	0.001223	43.878000021
1010.0	0.001223	43.9090001583
1010.0	0.001225	43.9560000896
1010.0	0.001225	43.9869999886
1010.0	0.0012265	44.0340001583
1010.0	0.0012265	44.0810000896
1020.0	0.001235	44.3619999886
1020.0	0.00124	44.3930001259
1020.0	0.001244	44.4400000572
1020.0	0.0012485	44.4869999886
1020.0	0.001253	44.5180001259
1020.0	0.001258	44.5650000572
1020.0	0.001263	44.6119999886
1020.0	0.0012665	44.6430001259
1020.0	0.001269	44.6900000572
1020.0	0.001271	44.7210001945
1020.0	0.0012715	44.7680001259
1020.0	0.001273	44.8150000572
1020.0	0.001274	44.8460001945
1020.0	0.0012765	44.8930001259
1020.0	0.0012775	44.9400000572
1020.0	0.0012795	44.9710001945
1020.0	0.0012805	45.0180001259
1020.0	0.0012825	45.0650000572
1020.0	0.0012835	45.0960001945
1020.0	0.001285	45.1430001259
1020.0	0.0012855	45.1740000248
1020.0	0.001286	45.2210001945
1020.0	0.0012855	45.2680001259
1020.0	0.001286	45.2990000248
1020.0	0.0012855	45.3460001945
1030.0	0.001295	45.628000021
1030.0	0.0012995	45.6750001907
1030.0	0.001303	45.7060000896
1030.0	0.001306	45.753000021
1030.0	0.0013075	45.8000001907
1030.0	0.0013105	45.8310000896
1030.0	0.0013135	45.878000021
1030.0	0.0013185	45.9090001583
1030.0	0.001322	45.9560000896
1030.0	0.0013255	46.003000021
1030.0	0.001328	46.0340001583
1030.0	0.001331	46.0810000896
1030.0	0.001333	46.128000021
1030.0	0.0013355	46.1590001583
1030.0	0.001337	46.2060000896
1030.0	0.0013385	46.253000021
1030.0	0.0013395	46.2840001583
1030.0	0.0013405	46.3310000896
1030.0	0.0013405	46.3619999886
1030.0	0.001342	46.4090001583
1030.0	0.001343	46.4560000896
1030.0	0.0013445	46.4869999886
1030.0	0.0013455	46.5340001583
1030.0	0.001347	46.5810000896
1040.0	0.0013595	46.8460001945
1040.0	0.001362	46.8930001259
1040.0	0.001365	46.9400000572
1040.0	0.0013675	46.9710001945
1040.0	0.00137	47.0180001259
1040.0	0.0013725	47.0650000572
1040.0	0.001376	47.0960001945
1040.0	0.001378	47.1430001259
1040.0	0.0013805	47.1750001907
1040.0	0.001381	47.2210001945
1040.0	0.0013805	47.2680001259
1040.0	0.00138	47.3000001907
1040.0	0.0013835	47.3460001945
1040.0	0.0013845	47.3930001259
1040.0	0.001388	47.4250001907
1040.0	0.0013905	47.4710001945
1040.0	0.001392	47.503000021
1040.0	0.0013925	47.5500001907
1040.0	0.001393	47.5960001945
1040.0	0.0013945	47.628000021
1040.0	0.0013955	47.6750001907
1040.0	0.0013955	47.7210001945
1040.0	0.0013945	47.753000021
1040.0	0.0013945	47.8000001907
1040.0	0.0013955	47.8470001221
1050.0	0.001406	48.1119999886
1050.0	0.00141	48.1590001583
1050.0	0.0014145	48.2060000896
1050.0	0.001418	48.253000021
1050.0	0.001423	48.2840001583
1050.0	0.0014255	48.3310000896
1050.0	0.0014295	48.3619999886
1050.0	0.001431	48.4090001583
1050.0	0.0014345	48.4560000896
1050.0	0.0014355	48.4869999886
1050.0	0.0014385	48.5340001583
1050.0	0.0014405	48.5810000896
1050.0	0.0014425	48.6119999886
1050.0	0.001443	48.6590001583
1050.0	0.0014455	48.6900000572
1050.0	0.001447	48.7369999886
1050.0	0.001448	48.7840001583
1050.0	0.0014495	48.8150000572
1050.0	0.0014505	48.8619999886
1050.0	0.001452	48.9090001583
1050.0	0.0014525	48.9400000572
1050.0	0.0014525	48.9869999886
1050.0	0.0014525	49.0180001259
1050.0	0.0014535	49.0650000572
1050.0	0.0014545	49.1119999886
1060.0	0.001467	49.3930001259
1060.0	0.0014695	49.4250001907
1060.0	0.001475	49.4720001221
1060.0	0.0014775	49.503000021
1060.0	0.001482	49.5500001907
1060.0	0.001485	49.5970001221
1060.0	0.0014885	49.628000021
1060.0	0.001492	49.6750001907
1060.0	0.0014945	49.7220001221
1060.0	0.001497	49.753000021
1060.0	0.0014995	49.8000001907
1060.0	0.0015005	49.8470001221
1060.0	0.0015035	49.878000021
1060.0	0.0015045	49.9250001907
1060.0	0.0015055	49.9560000896
1060.0	0.001505	50.003000021
1060.0	0.001505	50.0500001907
1060.0	0.0015055	50.0810000896
1060.0	0.0015055	50.128000021
1060.0	0.001507	50.1750001907
1060.0	0.001507	50.2060000896
1060.0	0.001508	50.253000021
1060.0	0.0015085	50.3000001907
1060.0	0.00151	50.3310000896
1060.0	0.0015095	50.378000021
1070.0	0.001513	50.6590001583
1070.0	0.001517	50.6900000572
1070.0	0.001522	50.7369999886
1070.0	0.0015245	50.7840001583
1070.0	0.0015285	50.8150000572
1070.0	0.001531	50.8619999886
1070.0	0.0015345	50.9090001583
1070.0	0.001536	50.9400000572
1070.0	0.0015395	50.9869999886
1070.0	0.001541	51.0340001583
1070.0	0.0015425	51.0650000572
1070.0	0.0015435	51.1119999886
1070.0	0.001545	51.1590001583
1070.0	0.001547	51.1900000572
1070.0	0.001548	51.2369999886
1070.0	0.0015505	51.2690000534
1070.0	0.001553	51.3150000572
1070.0	0.001555	51.3619999886
1070.0	0.001556	51.3940000534
1070.0	0.0015595	51.4400000572
1070.0	0.0015595	51.4869999886
1070.0	0.001561	51.5190000534
1070.0	0.0015605	51.5650000572
1070.0	0.001562	51.6119999886
1080.0	0.001563	51.878000021
1080.0	0.0015675	51.9250001907
1080.0	0.00157	51.9560000896
1080.0	0.001575	52.003000021
1080.0	0.001578	52.0500001907
1080.0	0.001583	52.0810000896
1080.0	0.001586	52.128000021
1080.0	0.001588	52.1750001907
1080.0	0.0015905	52.2060000896
1080.0	0.001593	52.253000021
1080.0	0.0015955	52.2840001583
1080.0	0.001598	52.3310000896
1080.0	0.0015995	52.378000021
1080.0	0.001601	52.4090001583
1080.0	0.001602	52.4560000896
1080.0	0.0016025	52.503000021
1080.0	0.0016025	52.5340001583
1080.0	0.001602	52.5810000896
1080.0	0.0016005	52.628000021
1080.0	0.0015985	52.6590001583
1080.0	0.0016005	52.7060000896
1080.0	0.001601	52.7369999886
1080.0	0.001603	52.7840001583
1080.0	0.0016055	52.8310000896
1090.0	0.001616	53.0970001221
1090.0	0.0016195	53.1440000534
1090.0	0.0016195	53.1750001907
1090.0	0.001618	53.2220001221
1090.0	0.0016205	53.2690000534
1090.0	0.0016235	53.3000001907
1090.0	0.001628	53.3470001221
1090.0	0.0016335	53.3940000534
1090.0	0.00164	53.4250001907
1090.0	0.001643	53.4720001221
1090.0	0.0016455	53.5190000534
1090.0	0.001646	53.5500001907
1090.0	0.001647	53.5970001221
1090.0	0.0016475	53.628000021
1090.0	0.00165	53.6750001907
1090.0	0.001653	53.7220001221
1090.0	0.001655	53.7690000534
1090.0	0.001657	53.8000001907
1090.0	0.001657	53.8470001221
1090.0	0.0016575	53.878000021
1090.0	0.001656	53.9250001907
1090.0	0.001656	53.9720001221
1090.0	0.0016555	54.003000021
1090.0	0.001656	54.0500001907
1090.0	0.001655	54.0970001221
1100.0	0.0016645	54.3630001545
1100.0	0.0016655	54.4090001583
1100.0	0.0016685	54.4409999847
1100.0	0.0016705	54.4880001545
1100.0	0.0016745	54.5190000534
1100.0	0.001677	54.5659999847
1100.0	0.0016805	54.6130001545
1100.0	0.001683	54.6440000534
1100.0	0.001687	54.6909999847
1100.0	0.0016885	54.7380001545
1100.0	0.001692	54.7690000534
1100.0	0.001692	54.8159999847
1100.0	0.001693	54.8470001221
1100.0	0.0016935	54.8940000534
1100.0	0.001696	54.9409999847
1100.0	0.001697	54.9720001221
1100.0	0.001697	55.0190000534
1100.0	0.001698	55.0659999847
1100.0	0.001697	55.0970001221
1100.0	0.001697	55.1440000534
1100.0	0.001697	55.1909999847
1100.0	0.0016995	55.2220001221
1100.0	0.001702	55.2690000534
1100.0	0.0017045	55.3000001907
1100.0	0.0017055	55.3470001221
1110.0	0.0017095	55.6130001545
1110.0	0.001712	55.6590001583
1110.0	0.0017155	55.7060000896
1110.0	0.0017195	55.7380001545
1110.0	0.001723	55.7840001583
1110.0	0.001726	55.8310000896
1110.0	0.0017295	55.8630001545
1110.0	0.00173	55.9090001583
1110.0	0.001732	55.9409999847
1110.0	0.001732	55.9880001545
1110.0	0.001735	56.0340001583
1110.0	0.001737	56.0659999847
1110.0	0.00174	56.1130001545
1110.0	0.0017405	56.1590001583
1110.0	0.001742	56.1909999847
1110.0	0.0017425	56.2380001545
1110.0	0.0017435	56.2690000534
1110.0	0.0017455	56.3159999847
1110.0	0.001747	56.3630001545
1110.0	0.001748	56.3940000534
1110.0	0.00175	56.4409999847
1110.0	0.00175	56.4880001545
1110.0	0.001751	56.5190000534
1110.0	0.0017505	56.5659999847
1110.0	0.0017495	56.5970001221
1120.0	0.0017525	56.878000021
1120.0	0.0017555	56.9100000858
1120.0	0.0017595	56.9560000896
1120.0	0.0017625	57.003000021
1120.0	0.001767	57.0350000858
1120.0	0.0017705	57.0810000896
1120.0	0.001775	57.128000021
1120.0	0.0017755	57.1600000858
1120.0	0.0017795	57.2060000896
1120.0	0.0017805	57.253000021
1120.0	0.0017835	57.2850000858
1120.0	0.0017855	57.3310000896
1120.0	0.001787	57.378000021
1120.0	0.001787	57.4100000858
1120.0	0.001787	57.4560000896
1120.0	0.0017855	57.503000021
1120.0	0.001786	57.5350000858
1120.0	0.001786	57.5810000896
1120.0	0.0017895	57.6130001545
1120.0	0.001792	57.6600000858
1120.0	0.0017945	57.7060000896
1120.0	0.0017945	57.7380001545
1120.0	0.0017955	57.7850000858
1120.0	0.0017975	57.8310000896
1130.0	0.001806	58.0970001221
1130.0	0.0018095	58.1440000534
1130.0	0.0018125	58.1750001907
1130.0	0.0018135	58.2220001221
1130.0	0.0018155	58.253000021
1130.0	0.00182	58.3000001907
1130.0	0.001822	58.3470001221
1130.0	0.0018255	58.378000021
1130.0	0.001825	58.4250001907
1130.0	0.001826	58.4720001221
1130.0	0.001826	58.503000021
1130.0	0.0018285	58.5500001907
1130.0	0.00183	58.5970001221
1130.0	0.0018335	58.6440000534
1130.0	0.001835	58.6750001907
1130.0	0.001836	58.7220001221
1130.0	0.001836	58.753000021
1130.0	0.0018385	58.8000001907
1130.0	0.00184	58.8470001221
1130.0	0.001842	58.878000021
1130.0	0.001842	58.9250001907
1130.0	0.001842	58.9720001221
1130.0	0.001842	59.003000021
1130.0	0.001841	59.0500001907
1140.0	0.001847	59.3159999847
1140.0	0.001852	59.3630001545
1140.0	0.0018555	59.3940000534
1140.0	0.0018585	59.4409999847
1140.0	0.001862	59.4880001545
1140.0	0.0018625	59.5190000534
1140.0	0.0018635	59.5659999847
1140.0	0.0018645	59.6130001545
1140.0	0.0018655	59.6440000534
1140.0	0.0018655	59.6909999847
1140.0	0.0018685	59.7220001221
1140.0	0.001871	59.7690000534
1140.0	0.001872	59.8159999847
1140.0	0.0018725	59.8470001221
1140.0	0.001875	59.8940000534
1140.0	0.0018755	59.9409999847
1140.0	0.001878	59.9720001221
1140.0	0.001878	60.0190000534
1140.0	0.00188	60.0659999847
1140.0	0.0018795	60.0970001221
1140.0	0.0018795	60.1440000534
1140.0	0.0018785	60.1750001907
1140.0	0.001878	60.2220001221
1140.0	0.001878	60.2690000534
1150.0	0.001888	60.5350000858
1150.0	0.0018905	60.5820000172
1150.0	0.001895	60.6130001545
1150.0	0.001896	60.6600000858
1150.0	0.0018985	60.7070000172
1150.0	0.001901	60.7380001545
1150.0	0.0019045	60.7850000858
1150.0	0.001905	60.8159999847
1150.0	0.0019055	60.8630001545
1150.0	0.001906	60.9100000858
1150.0	0.001908	60.9409999847
1150.0	0.0019095	60.9880001545
1150.0	0.001912	61.0350000858
1150.0	0.0019135	61.0659999847
1150.0	0.0019135	61.1130001545
1150.0	0.0019155	61.1440000534
1150.0	0.0019145	61.1909999847
1150.0	0.001916	61.2380001545
1150.0	0.001916	61.2690000534
1150.0	0.001918	61.3159999847
1150.0	0.001918	61.3630001545
1150.0	0.0019195	61.3940000534
1150.0	0.0019195	61.4409999847
1150.0	0.0019205	61.4880001545
1160.0	0.0019255	61.7540001869
1160.0	0.001928	61.8000001907
1160.0	0.00193	61.8320000172
1160.0	0.001932	61.8790001869
1160.0	0.001933	61.9250001907
1160.0	0.001935	61.9720001221
1160.0	0.0019355	62.0040001869
1160.0	0.0019375	62.0500001907
1160.0	0.0019385	62.0820000172
1160.0	0.001942	62.1290001869
1160.0	0.001945	62.1750001907
1160.0	0.0019475	62.2070000172
1160.0	0.0019495	62.2540001869
1160.0	0.00195	62.3000001907
1160.0	0.001952	62.3320000172
1160.0	0.001951	62.3790001869
1160.0	0.001953	62.4100000858
1160.0	0.001952	62.4570000172
1160.0	0.001953	62.5040001869
1160.0	0.0019525	62.5350000858
1160.0	0.0019535	62.5820000172
1160.0	0.0019525	62.6290001869
1160.0	0.0019535	62.6600000858
1160.0	0.001953	62.7070000172
1170.0	0.001962	62.9720001221
1170.0	0.001966	63.0190000534
1170.0	0.00197	63.0510001183
1170.0	0.0019725	63.0970001221
1170.0	0.0019755	63.1440000534
1170.0	0.0019755	63.1760001183
1170.0	0.001977	63.2220001221
1170.0	0.0019755	63.2690000534
1170.0	0.001977	63.3010001183
1170.0	0.001976	63.3470001221
1170.0	0.001978	63.3790001869
1170.0	0.001978	63.4260001183
1170.0	0.0019775	63.4720001221
1170.0	0.001978	63.5040001869
1170.0	0.0019795	63.5510001183
1170.0	0.001983	63.5970001221
1170.0	0.0019835	63.6290001869
1170.0	0.0019855	63.6760001183
1170.0	0.001986	63.7070000172
1180.0	0.001997	64.2380001545
1180.0	0.0019995	64.2690000534
1180.0	0.002001	64.3159999847
1180.0	0.0020025	64.3630001545
1180.0	0.002006	64.3940000534
1180.0	0.0020085	64.4409999847
1180.0	0.002012	64.4880001545
1180.0	0.0020145	64.5350000858
1180.0	0.002017	64.5659999847
1180.0	0.0020175	64.6130001545
1180.0	0.002018	64.6440000534
1180.0	0.0020195	64.6909999847
1180.0	0.0020195	64.7380001545
1180.0	0.0020195	64.7690000534
1180.0	0.0020185	64.8159999847
1180.0	0.0020205	64.8630001545
1180.0	0.00202	64.8940000534
1180.0	0.002022	64.9409999847
1180.0	0.0020205	64.9720001221
1180.0	0.00202	65.0190000534
1180.0	0.002018	65.0659999847
1180.0	0.0020185	65.0970001221
1180.0	0.002017	65.1440000534
1180.0	0.002017	65.1909999847
1190.0	0.002022	65.4570000172
1190.0	0.002027	65.5040001869
1190.0	0.0020295	65.5350000858
1190.0	0.002031	65.5820000172
1190.0	0.0020325	65.6130001545
1190.0	0.0020345	65.6600000858
1190.0	0.0020355	65.7070000172
1190.0	0.0020395	65.7380001545
1190.0	0.00204	65.7850000858
1190.0	0.002043	65.8320000172
1190.0	0.0020445	65.8630001545
1190.0	0.0020455	65.9100000858
1190.0	0.0020435	65.9570000172
1190.0	0.002038	65.9880001545
1190.0	0.002037	66.0350000858
1190.0	0.0020395	66.0820000172
1190.0	0.0020425	66.1130001545
1190.0	0.002045	66.1600000858
1190.0	0.0020485	66.2070000172
1190.0	0.0020505	66.2380001545
1190.0	0.0020525	66.2850000858
1190.0	0.0020535	66.3159999847
1190.0	0.002057	66.3630001545
1190.0	0.002057	66.4100000858
1200.0	0.002062	66.8480000496
1200.0	0.00206	66.8790001869
1200.0	0.0020625	66.9260001183
1200.0	0.0020645	66.9570000172
1200.0	0.0020685	67.0040001869
1200.0	0.00207	67.0510001183
1200.0	0.0020705	67.0820000172
1200.0	0.00207	67.1290001869
1200.0	0.0020705	67.1760001183
1200.0	0.00207	67.2070000172
1200.0	0.0020705	67.2540001869
1200.0	0.002072	67.2850000858
1200.0	0.0020735	67.3320000172
1200.0	0.0020745	67.3790001869
1200.0	0.002075	67.4100000858
1200.0	0.0020745	67.4570000172
1200.0	0.0020745	67.5040001869
1200.0	0.0020745	67.5350000858
1200.0	0.0020745	67.5820000172
1200.0	0.002077	67.6130001545
1200.0	0.0020775	67.6600000858
1200.0	0.0020805	67.7070000172
1200.0	0.00208	67.7380001545
1200.0	0.0020825	67.7850000858
1200.0	0.002081	67.8320000172
1210.0	0.0020785	68.0980000496
1210.0	0.0020795	68.1290001869
1210.0	0.0020825	68.1760001183
1210.0	0.0020845	68.2230000496
1210.0	0.002086	68.2540001869
1210.0	0.0020855	68.3010001183
1210.0	0.002087	68.3320000172
1210.0	0.002087	68.6290001869
1210.0	0.002087	68.6760001183
1210.0	0.002085	68.7070000172
1210.0	0.0020845	68.7540001869
1210.0	0.0020845	68.8010001183
1210.0	0.0020855	68.8320000172
1220.0	0.0021005	69.3630001545
1220.0	0.0020995	69.4100000858
1220.0	0.002102	69.4570000172
1220.0	0.0020975	69.4880001545
1220.0	0.0020995	69.5350000858
1220.0	0.0020995	69.5820000172
1220.0	0.002103	69.6290001869
1220.0	0.002098	69.7070000172
1220.0	0.0020995	69.7540001869
1220.0	0.0020995	69.8010001183
1220.0	0.0021	69.9100000858
1220.0	0.002101	69.9880001545
1220.0	0.0021035	70.0350000858
1220.0	0.0021045	70.0670001507
1220.0	0.002103	70.1130001545
1220.0	0.002107	70.1600000858
1220.0	0.0021045	70.1920001507
1220.0	0.0021005	70.2380001545
1220.0	0.0020995	70.2699999809
1220.0	0.0021005	70.3170001507
1220.0	0.0021035	70.3630001545
1230.0	0.002113	70.6600000858
1230.0	0.0021125	70.7070000172
1230.0	0.002111	70.7540001869
1230.0	0.0021135	70.7850000858
1230.0	0.0021045	70.8320000172
1230.0	0.002105	70.8630001545
1230.0	0.0021035	70.9100000858
1230.0	0.002103	70.9570000172
1230.0	0.002103	70.9880001545
1230.0	0.002103	71.0350000858
1230.0	0.002107	71.0820000172
1230.0	0.0021055	71.1290001869
1230.0	0.0021055	71.1600000858
1230.0	0.002106	71.2070000172
1230.0	0.002113	71.2540001869
1230.0	0.0021145	71.2850000858
1230.0	0.0021135	71.3320000172
1230.0	0.0021035	71.3630001545
1230.0	0.0021085	71.4100000858
1230.0	0.002116	71.4570000172
1230.0	0.0021145	71.4880001545
1230.0	0.002111	71.5350000858
1230.0	0.0021045	71.5820000172
1240.0	0.002108	71.8480000496
1240.0	0.0021095	71.8790001869
1240.0	0.0021085	71.9260001183
1240.0	0.0021095	71.9730000496
1240.0	0.0021045	72.0040001869
1240.0	0.0021145	72.0510001183
1240.0	0.0021145	72.0820000172
1240.0	0.0021135	72.1290001869
1240.0	0.0021125	72.1760001183
1240.0	0.0021055	72.2070000172
1240.0	0.0021055	72.2540001869
1240.0	0.002117	72.3010001183
1240.0	0.0021145	72.3320000172
1240.0	0.0021155	72.3790001869
1240.0	0.0021055	72.4100000858
1240.0	0.0021125	72.4570000172
1240.0	0.0021175	72.5040001869
1240.0	0.002117	72.5350000858
1240.0	0.0021085	72.5820000172
1240.0	0.0021035	72.6290001869
1240.0	0.0021035	72.6600000858
1240.0	0.002113	72.7070000172
1240.0	0.002116	72.7540001869
1240.0	0.002117	72.7850000858
1240.0	0.002106	72.8320000172
1250.0	0.002107	73.0980000496
1250.0	0.002116	73.1449999809
1250.0	0.0021085	73.1760001183
1250.0	0.0021055	73.2230000496
1250.0	0.002108	73.2699999809
1250.0	0.0021155	73.3010001183
1250.0	0.002118	73.3480000496
1250.0	0.002117	73.3949999809
1250.0	0.0021095	73.4260001183
1250.0	0.00211	73.4730000496
1250.0	0.0021195	73.5040001869
1250.0	0.002116	73.5510001183
1250.0	0.0021155	73.5980000496
1250.0	0.0021055	73.6290001869
1250.0	0.0021085	73.6760001183
1250.0	0.002118	73.7230000496
1250.0	0.0021175	73.7540001869
1250.0	0.00211	73.8010001183
1250.0	0.0021045	73.8320000172
1250.0	0.002113	73.8790001869
1250.0	0.002113	73.9260001183
1250.0	0.0021145	73.9570000172
1250.0	0.002115	74.0040001869
1250.0	0.002108	74.0510001183
1260.0	0.0021125	74.3170001507
1260.0	0.002118	74.364000082
1260.0	0.00211	74.3949999809
1260.0	0.0021075	74.4420001507
1260.0	0.0021135	74.4730000496
1260.0	0.0021175	74.5199999809
1260.0	0.002117	74.5670001507
1260.0	0.0021135	74.5980000496
1260.0	0.0021085	74.6449999809
1260.0	0.002108	74.6920001507
1260.0	0.0021175	74.7230000496
1260.0	0.002116	74.7699999809
1260.0	0.002108	74.8170001507
1260.0	0.002107	74.8480000496
1260.0	0.0021195	74.8949999809
1260.0	0.002118	74.9420001507
1260.0	0.002116	74.9730000496
1260.0	0.0021055	75.0199999809
1260.0	0.0021105	75.0670001507
1260.0	0.002115	75.0980000496
1260.0	0.002117	75.1449999809
1260.0	0.0021145	75.1760001183
1260.0	0.0021095	75.2230000496
1260.0	0.0021055	75.2699999809
1270.0	0.0021085	75.5360000134
1270.0	0.002117	75.5820000172
1270.0	0.002106	75.614000082
1270.0	0.0021125	75.6610000134
1270.0	0.0021175	75.7070000172
1270.0	0.002118	75.739000082
1270.0	0.002105	75.7860000134
1270.0	0.002108	75.8320000172
1270.0	0.002117	75.864000082
1270.0	0.002118	75.9110000134
1270.0	0.002106	75.9570000172
1270.0	0.002107	75.989000082
1270.0	0.002118	76.0360000134
1270.0	0.0021185	76.0670001507
1270.0	0.002117	76.114000082
1270.0	0.002116	76.1610000134
1270.0	0.0021045	76.1920001507
1270.0	0.002113	76.239000082
1270.0	0.0021175	76.2860000134
1270.0	0.002118	76.3170001507
1270.0	0.002108	76.364000082
1270.0	0.0021085	76.3949999809
1270.0	0.002112	76.4420001507
1270.0	0.002117	76.489000082
1280.0	0.0021085	76.7540001869
1280.0	0.0021145	76.8010001183
1280.0	0.0021175	76.8480000496
1280.0	0.002117	76.8790001869
1280.0	0.002106	76.9260001183
1280.0	0.002106	76.9580001831
1280.0	0.002115	77.0040001869
1280.0	0.002116	77.0510001183
1280.0	0.002116	77.0830001831
1280.0	0.0021075	77.1290001869
1280.0	0.0021075	77.1760001183
1280.0	0.0021075	77.2080001831
1280.0	0.0021175	77.2540001869
1280.0	0.002117	77.3010001183
1280.0	0.0021145	77.3330001831
1280.0	0.002108	77.3790001869
1280.0	0.002113	77.4110000134
1280.0	0.002118	77.4580001831
1280.0	0.002118	77.5040001869
1280.0	0.002108	77.5360000134
1280.0	0.002107	77.5830001831
1280.0	0.0021135	77.6290001869
1280.0	0.0021155	77.6610000134
1280.0	0.002117	77.7080001831
1280.0	0.0021085	77.739000082
1290.0	0.002117	78.0199999809
1290.0	0.002117	78.0510001183
1290.0	0.002118	78.0980000496
1290.0	0.002117	78.1449999809
1290.0	0.002106	78.1760001183
1290.0	0.0021105	78.2230000496
1290.0	0.002118	78.2699999809
1290.0	0.002117	78.3010001183
1290.0	0.0021135	78.3480000496
1290.0	0.0021045	78.3800001144
1290.0	0.0021105	78.4260001183
1290.0	0.002117	78.4730000496
1290.0	0.002117	78.5050001144
1290.0	0.002117	78.5510001183
1290.0	0.002108	78.5980000496
1290.0	0.002108	78.6300001144
1290.0	0.002118	78.6760001183
1290.0	0.002116	78.7080001831
1290.0	0.002118	78.7550001144
1290.0	0.0021045	78.8010001183
1290.0	0.0021135	78.8330001831
1290.0	0.002117	78.8800001144
1290.0	0.002117	78.9260001183
1290.0	0.0021085	78.9580001831
1290.0	0.002107	79.0050001144
1300.0	0.002105	79.2699999809
1300.0	0.0021175	79.3170001507
1300.0	0.0021055	79.364000082
1300.0	0.002117	79.3949999809
1300.0	0.002116	79.4420001507
1300.0	0.002117	79.489000082
1300.0	0.002108	79.5199999809
1300.0	0.002105	79.5670001507
1300.0	0.0021125	79.5980000496
1300.0	0.002117	79.6449999809
1300.0	0.002116	79.6920001507
1300.0	0.0021055	79.7230000496
1300.0	0.002108	79.7699999809
1300.0	0.0021175	79.8170001507
1300.0	0.002118	79.8480000496
1300.0	0.002118	79.8949999809
1300.0	0.002117	79.9420001507
1300.0	0.002105	79.9730000496
1300.0	0.0021155	80.0199999809
1300.0	0.002117	80.0510001183
1300.0	0.0021175	80.0980000496
1300.0	0.0021075	80.1449999809
1300.0	0.0021055	80.1760001183
1300.0	0.002108	80.2230000496
1310.0	0.0021105	80.489000082
1310.0	0.0021045	80.5360000134
1310.0	0.0021075	80.5830001831
1310.0	0.0021175	80.614000082
1310.0	0.002118	80.6610000134
1310.0	0.0021155	80.6920001507
1310.0	0.0021105	80.739000082
1310.0	0.0021045	80.7860000134
1310.0	0.002107	80.8170001507
1310.0	0.002117	80.864000082
1310.0	0.002116	80.9110000134
1310.0	0.0021095	80.9420001507
1310.0	0.0021055	80.989000082
1310.0	0.002113	81.0199999809
1310.0	0.0021175	81.0670001507
1310.0	0.002116	81.114000082
1310.0	0.0021105	81.1449999809
1310.0	0.0021075	81.1920001507
1310.0	0.002105	81.239000082
1310.0	0.002117	81.2699999809
1310.0	0.0021145	81.3170001507
1310.0	0.0021045	81.364000082
1310.0	0.002116	81.3949999809
1310.0	0.0021175	81.4420001507
1310.0	0.002117	81.489000082
1320.0	0.002116	81.7550001144
1320.0	0.002107	81.7860000134
1320.0	0.0021195	81.8330001831
1320.0	0.0021175	81.8800001144
1320.0	0.0021155	81.9110000134
1320.0	0.002107	81.9580001831
1320.0	0.0021095	81.989000082
1320.0	0.002117	82.0360000134
1320.0	0.002116	82.0830001831
1320.0	0.0021155	82.114000082
1320.0	0.0021175	82.1610000134
1320.0	0.0021055	82.2080001831
1320.0	0.002111	82.239000082
1320.0	0.002118	82.2860000134
1320.0	0.0021175	82.3330001831
1320.0	0.002113	82.364000082
1320.0	0.002105	82.4110000134
1320.0	0.0021155	82.4420001507
1320.0	0.002117	82.489000082
1320.0	0.002116	82.5360000134
1320.0	0.0021155	82.5670001507
1320.0	0.0021055	82.614000082
1320.0	0.0021155	82.6449999809
1320.0	0.002117	82.6920001507
1320.0	0.002117	82.739000082
1330.0	0.002116	83.0050001144
1330.0	0.002107	83.0520000458
1330.0	0.0021155	83.0830001831
1330.0	0.002117	83.1300001144
1330.0	0.002117	83.1610000134
1330.0	0.002116	83.2080001831
1330.0	0.002107	83.2550001144
1330.0	0.0021145	83.2860000134
1330.0	0.002117	83.364000082
1330.0	0.002106	83.4110000134
1330.0	0.002117	83.4420001507
1330.0	0.002108	83.489000082
1330.0	0.002106	83.5360000134
1330.0	0.0021095	83.5670001507
1330.0	0.002113	83.614000082
1330.0	0.0021155	83.6449999809
1330.0	0.002117	83.6920001507
1330.0	0.002106	83.739000082
1330.0	0.002105	83.7699999809
1330.0	0.002115	83.8170001507
1330.0	0.002116	83.864000082
1330.0	0.0021145	83.8949999809
1330.0	0.0021045	83.9420001507
1330.0	0.0021105	83.9739999771
1340.0	0.0021195	84.2550001144
1340.0	0.002118	84.2860000134
1340.0	0.0021155	84.3330001831
1340.0	0.002107	84.364000082
1340.0	0.0021045	84.4110000134
1340.0	0.002112	84.4580001831
1340.0	0.002107	84.489000082
1340.0	0.0021055	84.5360000134
1340.0	0.0021055	84.5830001831
1340.0	0.0021045	84.614000082
1340.0	0.0020995	84.6610000134
1340.0	0.002098	84.6920001507
1340.0	0.002097	84.739000082
1340.0	0.0021005	84.7860000134
1340.0	0.0021005	84.8170001507
1340.0	0.002097	84.864000082
1340.0	0.002096	84.9110000134
1340.0	0.0020935	84.9420001507
1340.0	0.002095	84.989000082
1340.0	0.002091	85.0210001469
1340.0	0.0020905	85.0670001507
1340.0	0.0020895	85.114000082
1340.0	0.0020885	85.1460001469
1340.0	0.0020875	85.1920001507
1340.0	0.0020905	85.239000082
1350.0	0.0020805	85.5050001144
1350.0	0.0020755	85.5360000134
1350.0	0.002068	85.5830001831
1350.0	0.0020635	85.6300001144
1350.0	0.002058	85.6610000134
1350.0	0.002055	85.7080001831
1350.0	0.002051	85.7550001144
1350.0	0.0020495	85.7860000134
1350.0	0.002046	85.8330001831
1350.0	0.002045	85.864000082
1350.0	0.0020405	85.9110000134
1350.0	0.0020375	85.9580001831
1350.0	0.002033	85.989000082
1350.0	0.00203	86.0360000134
1350.0	0.002027	86.0830001831
1350.0	0.002025	86.114000082
1350.0	0.0020225	86.1610000134
1350.0	0.0020205	86.1920001507
1350.0	0.00202	86.239000082
1350.0	0.0020205	86.2860000134
1350.0	0.0020185	86.3170001507
1350.0	0.00202	86.364000082
1350.0	0.0020205	86.3960001469
1350.0	0.0020195	86.4420001507
1350.0	0.0020195	86.489000082
1360.0	0.0019935	86.7550001144
1360.0	0.0019845	86.7860000134
1360.0	0.0019775	86.8330001831
1360.0	0.0019705	86.8800001144
1360.0	0.0019635	86.9110000134
1360.0	0.001957	86.9580001831
1360.0	0.00195	87.0050001144
1360.0	0.001943	87.0360000134
1360.0	0.001935	87.0830001831
1360.0	0.001928	87.1300001144
1360.0	0.0019225	87.1610000134
1360.0	0.0019195	87.2080001831
1360.0	0.0019155	87.239000082
1360.0	0.001913	87.2860000134
1360.0	0.0019095	87.3330001831
1360.0	0.0019075	87.364000082
1360.0	0.0019035	87.4110000134
1360.0	0.0019035	87.4580001831
1360.0	0.0019025	87.489000082
1360.0	0.001903	87.5360000134
1360.0	0.0019025	87.5680000782
1360.0	0.001903	87.614000082
1360.0	0.0019005	87.6610000134
1360.0	0.0018995	87.6930000782
1360.0	0.0018975	87.739000082
1370.0	0.0018675	88.0360000134
1370.0	0.001857	88.0830001831
1370.0	0.0018455	88.114000082
1370.0	0.0018375	88.1610000134
1370.0	0.0018285	88.2080001831
1370.0	0.001822	88.239000082
1370.0	0.001813	88.2860000134
1370.0	0.0018075	88.3330001831
1370.0	0.0018	88.364000082
1370.0	0.0017955	88.4110000134
1370.0	0.001792	88.4430000782
1370.0	0.001788	88.489000082
1370.0	0.001783	88.5360000134
1370.0	0.0017795	88.5680000782
1370.0	0.001776	88.614000082
1370.0	0.001773	88.6610000134
1370.0	0.001771	88.6930000782
1370.0	0.0017685	88.739000082
1370.0	0.0017675	88.7710001469
1370.0	0.001765	88.8180000782
1370.0	0.0017635	88.864000082
1370.0	0.0017625	88.8960001469
1370.0	0.0017625	88.9430000782
1370.0	0.0017605	88.989000082
1380.0	0.001745	89.2550001144
1380.0	0.001737	89.3020000458
1380.0	0.0017305	89.3330001831
1380.0	0.001723	89.3800001144
1380.0	0.0017175	89.4270000458
1380.0	0.0017105	89.4580001831
1380.0	0.001706	89.5050001144
1380.0	0.0017	89.5520000458
1380.0	0.0016955	89.5830001831
1380.0	0.001691	89.6300001144
1380.0	0.001686	89.6770000458
1380.0	0.001683	89.7239999771
1380.0	0.0016795	89.7710001469
1380.0	0.001677	89.8020000458
1380.0	0.0016735	89.8489999771
1380.0	0.001673	89.8800001144
1380.0	0.001672	89.9270000458
1380.0	0.0016725	89.9739999771
1380.0	0.001671	90.0210001469
1380.0	0.00167	90.0520000458
1380.0	0.001668	90.0989999771
1380.0	0.0016675	90.1300001144
1380.0	0.001666	90.1770000458
1380.0	0.001667	90.2239999771
1390.0	0.001657	90.5050001144
1390.0	0.001653	90.5520000458
1390.0	0.0016525	90.5989999771
1390.0	0.00165	90.6300001144
1390.0	0.0016495	90.6770000458
1390.0	0.001648	90.7239999771
1390.0	0.0016475	90.7550001144
1390.0	0.0016455	90.8020000458
1390.0	0.0016455	90.8489999771
1390.0	0.0016445	90.8800001144
1390.0	0.001643	90.9270000458
1390.0	0.001642	90.9739999771
1390.0	0.0016405	91.0050001144
1390.0	0.001638	91.0520000458
1390.0	0.001637	91.0830001831
1390.0	0.0016355	91.1300001144
1390.0	0.0016355	91.1770000458
1390.0	0.001635	91.2080001831
1390.0	0.0016345	91.2550001144
1390.0	0.001633	91.3020000458
1390.0	0.001633	91.3330001831
1390.0	0.0016345	91.3800001144
1390.0	0.0016345	91.4120001793
1390.0	0.0016355	91.4580001831
1390.0	0.0016345	91.5050001144
1400.0	0.0016345	91.7710001469
1400.0	0.001636	91.8020000458
1400.0	0.0016375	91.8489999771
1400.0	0.0016385	91.8800001144
1400.0	0.0016395	91.9270000458
1400.0	0.0016405	91.9739999771
1400.0	0.0016405	92.0210001469
1400.0	0.001642	92.0520000458
1400.0	0.0016435	92.0989999771
1400.0	0.0016445	92.1460001469
1400.0	0.001647	92.1770000458
1400.0	0.0016475	92.2239999771
1400.0	0.0016485	92.2550001144
1400.0	0.001648	92.3020000458
1400.0	0.0016485	92.3489999771
1400.0	0.001648	92.3800001144
1400.0	0.0016495	92.4270000458
1400.0	0.00165	92.4739999771
1400.0	0.001652	92.5050001144
1400.0	0.0016525	92.5520000458
1400.0	0.001653	92.5830001831
1400.0	0.0016525	92.6300001144
1400.0	0.001653	92.6770000458
1400.0	0.001653	92.7080001831
1400.0	0.001653	92.7550001144
1410.0	0.001658	93.0210001469
1410.0	0.001665	93.0830001831
1410.0	0.001671	93.1300001144
1410.0	0.0016755	93.1620001793
1410.0	0.001681	93.2080001831
1410.0	0.001683	93.2400000095
1410.0	0.001686	93.2870001793
1410.0	0.001688	93.3330001831
1410.0	0.001692	93.3650000095
1410.0	0.001693	93.4120001793
1410.0	0.0016975	93.4590001106
1410.0	0.0016985	93.4900000095
1410.0	0.001702	93.5370001793
1410.0	0.0017035	93.5680000782
1410.0	0.001707	93.6150000095
1410.0	0.001708	93.6620001793
1410.0	0.00171	93.6930000782
1410.0	0.0017105	93.7400000095
1410.0	0.001712	93.7870001793
1410.0	0.001711	93.8180000782
1410.0	0.001711	93.8650000095
1410.0	0.0017105	93.8960001469
1410.0	0.001711	93.9430000782
1410.0	0.001712	93.9900000095
1420.0	0.0017275	94.2550001144
1420.0	0.0017345	94.2870001793
1420.0	0.001742	94.3340001106
1420.0	0.0017495	94.3650000095
1420.0	0.001757	94.4120001793
1420.0	0.001763	94.4590001106
1420.0	0.00177	94.4900000095
1420.0	0.001775	94.5370001793
1420.0	0.0017795	94.5840001106
1420.0	0.0017835	94.6150000095
1420.0	0.0017855	94.6620001793
1420.0	0.001788	94.7090001106
1420.0	0.0017895	94.7400000095
1420.0	0.001793	94.7870001793
1420.0	0.0017945	94.8340001106
1420.0	0.001796	94.8650000095
1420.0	0.001797	94.9120001793
1420.0	0.0017995	94.9590001106
1420.0	0.0017995	94.9900000095
1420.0	0.0018005	95.0370001793
1420.0	0.001801	95.0680000782
1420.0	0.0018035	95.1150000095
1420.0	0.0018035	95.1620001793
1420.0	0.0018055	95.1930000782
1420.0	0.001806	95.2400000095
1430.0	0.0018255	95.5050001144
1430.0	0.00183	95.5370001793
1430.0	0.001837	95.5840001106
1430.0	0.001841	95.631000042
1430.0	0.001848	95.6620001793
1430.0	0.0018545	95.7090001106
1430.0	0.001861	95.756000042
1430.0	0.0018655	95.7870001793
1430.0	0.001871	95.8340001106
1430.0	0.0018745	95.8650000095
1430.0	0.001877	95.9120001793
1430.0	0.001878	95.9590001106
1430.0	0.001881	95.9900000095
1430.0	0.001883	96.0370001793
1430.0	0.0018835	96.0840001106
1430.0	0.001885	96.1150000095
1430.0	0.0018855	96.1620001793
1430.0	0.0018885	96.1930000782
1430.0	0.00189	96.2400000095
1430.0	0.0018925	96.2870001793
1430.0	0.001893	96.3180000782
1430.0	0.001893	96.3650000095
1430.0	0.001892	96.4120001793
1430.0	0.001893	96.4430000782
1430.0	0.001893	96.4900000095
1440.0	0.001908	96.756000042
1440.0	0.001913	96.7870001793
1440.0	0.0019185	96.8340001106
1440.0	0.0019225	96.881000042
1440.0	0.001928	96.9120001793
1440.0	0.001931	96.9590001106
1440.0	0.0019355	96.9900000095
1440.0	0.001938	97.0370001793
1440.0	0.0019425	97.0840001106
1440.0	0.0019445	97.1150000095
1440.0	0.001948	97.1620001793
1440.0	0.00195	97.2090001106
1440.0	0.001953	97.2400000095
1440.0	0.001953	97.2870001793
1440.0	0.0019555	97.3180000782
1440.0	0.0019575	97.3650000095
1440.0	0.00196	97.4120001793
1440.0	0.001958	97.4430000782
1440.0	0.0019545	97.4900000095
1440.0	0.001953	97.5370001793
1440.0	0.0019545	97.5680000782
1440.0	0.0019535	97.6150000095
1440.0	0.0019555	97.6460001469
1440.0	0.0019575	97.6930000782
1440.0	0.0019595	97.7400000095
1450.0	0.0019705	98.006000042
1450.0	0.001975	98.0370001793
1450.0	0.001977	98.0840001106
1450.0	0.00198	98.131000042
1450.0	0.0019835	98.1620001793
1450.0	0.001985	98.2090001106
1450.0	0.0019885	98.256000042
1450.0	0.001991	98.3030002117
1450.0	0.0019945	98.3340001106
1450.0	0.0019955	98.381000042
1450.0	0.001997	98.4120001793
1450.0	0.001996	98.4590001106
1450.0	0.001998	98.506000042
1450.0	0.0019985	98.5370001793
1450.0	0.0020005	98.5840001106
1450.0	0.002002	98.631000042
1450.0	0.002003	98.6620001793
1450.0	0.002003	98.7090001106
1450.0	0.0020045	98.7400000095
1450.0	0.0020045	98.7870001793
1450.0	0.002007	98.8340001106
1450.0	0.0020075	98.881000042
1450.0	0.002007	98.9120001793
1450.0	0.0020055	98.9590001106
1460.0	0.002007	99.2239999771
1460.0	0.0020095	99.2710001469
1460.0	0.0020125	99.3030002117
1460.0	0.0020145	99.3489999771
1460.0	0.002013	99.381000042
1460.0	0.0020135	99.4280002117
1460.0	0.002015	99.4739999771
1460.0	0.0020175	99.506000042
1460.0	0.00202	99.5530002117
1460.0	0.0020225	99.5989999771
1460.0	0.0020225	99.631000042
1460.0	0.002023	99.6780002117
1460.0	0.0020225	99.7090001106
1460.0	0.0020235	99.756000042
1460.0	0.0020235	99.8030002117
1460.0	0.0020275	99.8340001106
1460.0	0.0020285	99.881000042
1460.0	0.002031	99.9280002117
1460.0	0.0020305	99.9590001106
1460.0	0.002033	100.006000042
1460.0	0.0020335	100.053000212
1460.0	0.002036	100.084000111
1460.0	0.002036	100.131000042
1460.0	0.0020355	100.162000179
1460.0	0.002035	100.209000111
1470.0	0.002033	100.475000143
1470.0	0.0020345	100.521000147
1470.0	0.002035	100.568000078
1470.0	0.0020355	100.600000143
1470.0	0.0020385	100.646000147
1470.0	0.002041	100.678000212
1470.0	0.0020445	100.725000143
1470.0	0.002046	100.771000147
1470.0	0.002048	100.803000212
1470.0	0.0020485	100.850000143
1470.0	0.002048	100.896000147
1470.0	0.002047	100.928000212
1470.0	0.002045	100.975000143
1470.0	0.002047	101.021000147
1470.0	0.002047	101.053000212
1470.0	0.002047	101.100000143
1470.0	0.002045	101.131000042
1470.0	0.0020455	101.178000212
1470.0	0.0020445	101.225000143
1470.0	0.0020445	101.256000042
1470.0	0.002043	101.303000212
1470.0	0.0020435	101.350000143
1470.0	0.0020445	101.381000042
1470.0	0.002046	101.428000212
1470.0	0.002046	101.459000111
1480.0	0.0020485	101.74000001
1480.0	0.0020485	101.787000179
1480.0	0.00205	101.818000078
1480.0	0.0020495	101.86500001
1480.0	0.0020505	101.912000179
1480.0	0.0020505	101.959000111
1480.0	0.002052	102.006000042
1480.0	0.0020525	102.053000212
1480.0	0.002051	102.084000111
1480.0	0.002052	102.131000042
1480.0	0.002052	102.178000212
1480.0	0.0020535	102.209000111
1480.0	0.0020535	102.256000042
1480.0	0.0020545	102.303000212
1480.0	0.0020525	102.334000111
1480.0	0.0020505	102.381000042
1480.0	0.0020495	102.412000179
1480.0	0.0020495	102.459000111
1480.0	0.0020495	102.506000042
1480.0	0.0020505	102.537000179
1480.0	0.002051	102.584000111
1480.0	0.002052	102.631000042
1480.0	0.0020505	102.662000179
1480.0	0.00205	102.709000111
1490.0	0.0020495	102.975000143
1490.0	0.0020485	103.022000074
1490.0	0.0020495	103.068000078
1490.0	0.00205	103.100000143
1490.0	0.0020505	103.147000074
1490.0	0.0020505	103.193000078
1490.0	0.0020505	103.225000143
1490.0	0.0020485	103.272000074
1490.0	0.002046	103.303000212
1490.0	0.0020445	103.350000143
1490.0	0.002045	103.397000074
1490.0	0.0020445	103.428000212
1490.0	0.0020475	103.475000143
1490.0	0.002048	103.522000074
1490.0	0.0020505	103.553000212
1490.0	0.0020505	103.600000143
1490.0	0.002051	103.631000042
1490.0	0.002052	103.678000212
1490.0	0.002053	103.725000143
1490.0	0.0020545	103.756000042
1490.0	0.0020555	103.803000212
1490.0	0.0020555	103.850000143
1490.0	0.002056	103.881000042
1490.0	0.002055	103.928000212
1490.0	0.0020555	103.975000143
1500.0	0.0020605	104.24000001
1500.0	0.0020595	104.287000179
1500.0	0.002058	104.319000006
1500.0	0.002057	104.36500001
1500.0	0.0020555	104.412000179
1500.0	0.002055	104.444000006
1500.0	0.0020555	104.49000001
1500.0	0.0020555	104.537000179
1500.0	0.002056	104.569000006
1500.0	0.0020555	104.61500001
1500.0	0.002056	104.662000179
1500.0	0.0020555	104.694000006
1500.0	0.0020555	104.74000001
1500.0	0.0020545	104.787000179
1500.0	0.0020545	104.819000006
1500.0	0.0020535	104.86500001
1500.0	0.0020545	104.912000179
1500.0	0.0020535	104.944000006
1500.0	0.0020545	104.99000001
1500.0	0.0020545	105.022000074
1500.0	0.0020555	105.069000006
1500.0	0.0020555	105.11500001
1500.0	0.0020555	105.147000074
1500.0	0.0020535	105.194000006
1500.0	0.0020525	105.225000143
1510.0	0.002042	105.506000042
1510.0	0.0020445	105.537000179
1510.0	0.0020455	105.584000111
1510.0	0.0020475	105.631000042
1510.0	0.0020495	105.662000179
1510.0	0.00205	105.709000111
1510.0	0.002052	105.756000042
1510.0	0.002052	105.787000179
1510.0	0.002051	105.834000111
1510.0	0.0020495	105.881000042
1510.0	0.0020495	105.912000179
1510.0	0.0020475	105.959000111
1510.0	0.002047	105.99000001
1510.0	0.0020475	106.037000179
1510.0	0.0020495	106.084000111
1510.0	0.0020485	106.11500001
1510.0	0.0020495	106.162000179
1510.0	0.002048	106.209000111
1510.0	0.0020495	106.24000001
1510.0	0.0020485	106.287000179
1510.0	0.0020495	106.319000006
1510.0	0.0020485	106.36500001
1510.0	0.0020485	106.412000179
1510.0	0.0020475	106.444000006
1510.0	0.002048	106.491000175
1520.0	0.0020425	106.756000042
1520.0	0.002043	106.803000212
1520.0	0.0020425	106.850000143
1520.0	0.0020435	106.881000042
1520.0	0.0020445	106.928000212
1520.0	0.0020445	106.959000111
1520.0	0.002043	107.006000042
1520.0	0.0020405	107.053000212
1520.0	0.00204	107.100000143
1520.0	0.0020405	107.131000042
1520.0	0.002041	107.178000212
1520.0	0.002041	107.209000111
1520.0	0.0020395	107.256000042
1520.0	0.002037	107.303000212
1520.0	0.002037	107.334000111
1520.0	0.002036	107.381000042
1520.0	0.002038	107.428000212
1520.0	0.0020385	107.459000111
1520.0	0.002041	107.506000042
1520.0	0.002041	107.537000179
1520.0	0.002042	107.584000111
1520.0	0.00204	107.631000042
1520.0	0.0020395	107.662000179
1520.0	0.002038	107.709000111
1520.0	0.002038	107.756000042
1530.0	0.0020405	108.022000074
1530.0	0.00204	108.069000006
1530.0	0.0020395	108.100000143
1530.0	0.0020395	108.147000074
1530.0	0.002038	108.178000212
1530.0	0.002037	108.225000143
1530.0	0.0020355	108.272000074
1530.0	0.0020355	108.303000212
1530.0	0.0020355	108.350000143
1530.0	0.002036	108.397000074
1530.0	0.002036	108.428000212
1530.0	0.002036	108.475000143
1530.0	0.002037	108.522000074
1530.0	0.0020355	108.553000212
1530.0	0.002037	108.600000143
1530.0	0.0020355	108.647000074
1530.0	0.002037	108.678000212
1530.0	0.0020355	108.725000143
1530.0	0.0020345	108.772000074
1530.0	0.002032	108.803000212
1530.0	0.002031	108.850000143
1530.0	0.00203	108.881000042
1530.0	0.0020305	108.928000212
1530.0	0.0020295	108.975000143
1540.0	0.002023	109.241000175
1540.0	0.002021	109.288000107
1540.0	0.002021	109.334000111
1540.0	0.002021	109.366000175
1540.0	0.002022	109.413000107
1540.0	0.0020225	109.459000111
1540.0	0.0020225	109.491000175
1540.0	0.002022	109.538000107
1540.0	0.00202	109.584000111
1540.0	0.00202	109.616000175
1540.0	0.0020185	109.663000107
1540.0	0.0020195	109.709000111
1540.0	0.002018	109.741000175
1540.0	0.0020185	109.788000107
1540.0	0.002017	109.819000006
1540.0	0.002017	109.866000175
1540.0	0.0020155	109.913000107
1540.0	0.002017	109.944000006
1540.0	0.002016	109.991000175
1540.0	0.0020175	110.038000107
1540.0	0.002017	110.069000006
1540.0	0.002017	110.116000175
1540.0	0.0020155	110.147000074
1540.0	0.002016	110.194000006
1540.0	0.0020105	110.241000175
1550.0	0.0020035	110.506000042
1550.0	0.002001	110.553000212
1550.0	0.002001	110.600000143
1550.0	0.0019995	110.631000042
1550.0	0.0019975	110.678000212
1550.0	0.001996	110.709000111
1550.0	0.001996	110.756000042
1550.0	0.0019955	110.803000212
1550.0	0.0019955	110.835000038
1550.0	0.001995	110.881000042
1550.0	0.001993	110.928000212
1550.0	0.001993	110.960000038
1550.0	0.001992	111.006000042
1550.0	0.001991	111.038000107
1550.0	0.0019895	111.085000038
1550.0	0.001988	111.131000042
1550.0	0.001986	111.163000107
1550.0	0.001986	111.210000038
1550.0	0.0019845	111.256000042
1550.0	0.0019845	111.288000107
1550.0	0.001983	111.335000038
1550.0	0.0019845	111.366000175
1550.0	0.0019835	111.413000107
1550.0	0.001985	111.460000038
1560.0	0.0019755	111.725000143
1560.0	0.0019735	111.772000074
1560.0	0.0019695	111.819000006
1560.0	0.001968	111.850000143
1560.0	0.001965	111.897000074
1560.0	0.0019635	111.928000212
1560.0	0.001962	111.975000143
1560.0	0.0019595	112.022000074
1560.0	0.001956	112.053000212
1560.0	0.0019535	112.100000143
1560.0	0.001952	112.147000074
1560.0	0.0019485	112.178000212
1560.0	0.0019455	112.225000143
1560.0	0.001943	112.272000074
1560.0	0.001942	112.303000212
1560.0	0.0019395	112.350000143
1560.0	0.0019395	112.381000042
1560.0	0.001938	112.428000212
1560.0	0.00194	112.475000143
1560.0	0.0019395	112.506000042
1560.0	0.0019385	112.553000212
1560.0	0.001937	112.600000143
1560.0	0.0019375	112.631000042
1560.0	0.001937	112.678000212
1560.0	0.0019375	112.725000143
1570.0	0.0019225	113.007000208
1570.0	0.0019175	113.053000212
1570.0	0.0019125	113.085000038
1570.0	0.001907	113.132000208
1570.0	0.0019005	113.178000212
1570.0	0.0018945	113.210000038
1570.0	0.001892	113.257000208
1570.0	0.001888	113.303000212
1570.0	0.001886	113.335000038
1570.0	0.001883	113.382000208
1570.0	0.001882	113.413000107
1570.0	0.001878	113.460000038
1570.0	0.001877	113.507000208
1570.0	0.0018745	113.538000107
1570.0	0.0018745	113.585000038
1570.0	0.0018705	113.632000208
1570.0	0.0018685	113.663000107
1570.0	0.001866	113.710000038
1570.0	0.001866	113.741000175
1570.0	0.001865	113.788000107
1570.0	0.001866	113.835000038
1570.0	0.0018645	113.866000175
1570.0	0.0018645	113.913000107
1570.0	0.001863	113.960000038
1580.0	0.0018525	114.225000143
1580.0	0.0018455	114.272000074
1580.0	0.0018375	114.319000006
1580.0	0.0018305	114.350000143
1580.0	0.001822	114.397000074
1580.0	0.0018155	114.444000006
1580.0	0.001807	114.475000143
1580.0	0.001802	114.522000074
1580.0	0.001796	114.553000212
1580.0	0.0017925	114.600000143
1580.0	0.001788	114.647000074
1580.0	0.0017835	114.678000212
1580.0	0.00178	114.725000143
1580.0	0.0017785	114.772000074
1580.0	0.0017755	114.803000212
1580.0	0.001775	114.850000143
1580.0	0.0017705	114.882000208
1580.0	0.0017685	114.928000212
1580.0	0.001766	114.975000143
1580.0	0.001767	115.007000208
1580.0	0.001767	115.053000212
1580.0	0.001768	115.100000143
1580.0	0.001768	115.132000208
1580.0	0.001768	115.179000139
1580.0	0.001768	115.225000143
1590.0	0.001707	115.694000006
1590.0	0.0017	115.725000143
1590.0	0.0016935	115.772000074
1590.0	0.0016875	115.819000006
1590.0	0.001682	115.866000175
1590.0	0.001677	115.897000074
1590.0	0.0016745	115.944000006
1590.0	0.00167	115.991000175
1590.0	0.001668	116.022000074
1590.0	0.0016645	116.069000006
1590.0	0.0016625	116.116000175
1590.0	0.00166	116.147000074
1590.0	0.0016595	116.194000006
1590.0	0.001656	116.225000143
1590.0	0.0016535	116.272000074
1590.0	0.001651	116.319000006
1590.0	0.00165	116.350000143
1590.0	0.001646	116.397000074
1590.0	0.001645	116.444000006
1590.0	0.0016435	116.475000143
1590.0	0.0016445	116.522000074
1590.0	0.0016445	116.554000139
1590.0	0.0016425	116.600000143
1590.0	0.0016405	116.647000074
1600.0	0.001621	116.929000139
1600.0	0.0016125	116.960000038
1600.0	0.001603	117.007000208
1600.0	0.0015935	117.054000139
1600.0	0.0015835	117.085000038
1600.0	0.001576	117.132000208
1600.0	0.0015675	117.179000139
1600.0	0.0015605	117.225000143
1600.0	0.0015545	117.257000208
1600.0	0.0015495	117.304000139
1600.0	0.001545	117.335000038
1600.0	0.001542	117.382000208
1600.0	0.0015375	117.429000139
1600.0	0.0015345	117.460000038
1600.0	0.001532	117.507000208
1600.0	0.0015305	117.554000139
1600.0	0.0015285	117.585000038
1600.0	0.001528	117.632000208
1600.0	0.001526	117.663000107
1600.0	0.001525	117.710000038
1600.0	0.0015245	117.757000208
1600.0	0.0015225	117.804000139
1600.0	0.001522	117.835000038
1600.0	0.0015195	117.882000208
1610.0	0.0015	118.147000074
1610.0	0.0014905	118.194000006
1610.0	0.001481	118.241000175
1610.0	0.001473	118.272000074
1610.0	0.0014655	118.319000006
1610.0	0.001456	118.366000175
1610.0	0.0014485	118.397000074
1610.0	0.001442	118.444000006
1610.0	0.0014355	118.491000175
1610.0	0.0014295	118.522000074
1610.0	0.0014245	118.569000006
1610.0	0.00142	118.616000175
1610.0	0.001416	118.647000074
1610.0	0.001412	118.694000006
1610.0	0.001408	118.726000071
1610.0	0.001407	118.772000074
1610.0	0.001405	118.819000006
1610.0	0.001403	118.851000071
1610.0	0.0014005	118.897000074
1610.0	0.0013995	118.944000006
1610.0	0.001397	118.976000071
1610.0	0.001397	119.022000074
1610.0	0.001395	119.069000006
1610.0	0.0013945	119.101000071
1610.0	0.001393	119.147000074
1620.0	0.0013735	119.429000139
1620.0	0.0013655	119.460000038
1620.0	0.001358	119.507000208
1620.0	0.0013485	119.554000139
1620.0	0.0013405	119.585000038
1620.0	0.001333	119.632000208
1620.0	0.001326	119.663000107
1620.0	0.00132	119.710000038
1620.0	0.001315	119.757000208
1620.0	0.00131	119.788000107
1620.0	0.0013055	119.835000038
1620.0	0.001301	119.882000208
1620.0	0.001297	119.913000107
1620.0	0.0012925	119.960000038
1620.0	0.0012895	120.007000208
1620.0	0.001287	120.038000107
1620.0	0.0012845	120.085000038
1620.0	0.001283	120.116000175
1620.0	0.0012805	120.163000107
1620.0	0.0012805	120.210000038
1620.0	0.001279	120.241000175
1620.0	0.0012785	120.288000107
1620.0	0.001278	120.335000038
1620.0	0.0012765	120.366000175
1620.0	0.001276	120.413000107
1630.0	0.00126	120.694000006
1630.0	0.0012505	120.726000071
1630.0	0.0012435	120.773000002
1630.0	0.0012355	120.819000006
1630.0	0.0012285	120.851000071
1630.0	0.0012225	120.898000002
1630.0	0.0012175	120.929000139
1630.0	0.0012105	120.976000071
1630.0	0.0012055	121.023000002
1630.0	0.0011985	121.054000139
1630.0	0.0011905	121.101000071
1630.0	0.001186	121.148000002
1630.0	0.0011835	121.179000139
1630.0	0.0011825	121.226000071
1630.0	0.00118	121.257000208
1630.0	0.00118	121.304000139
1630.0	0.0011785	121.351000071
1630.0	0.001178	121.382000208
1630.0	0.001176	121.429000139
1630.0	0.001176	121.476000071
1630.0	0.001174	121.507000208
1630.0	0.0011735	121.554000139
1630.0	0.001173	121.601000071
1630.0	0.0011735	121.632000208
1630.0	0.001173	121.679000139
1640.0	0.0011565	121.945000172
1640.0	0.001149	121.991000175
1640.0	0.0011415	122.038000107
1640.0	0.0011335	122.070000172
1640.0	0.001128	122.116000175
1640.0	0.0011205	122.148000002
1640.0	0.0011105	122.226000071
1640.0	0.0011075	122.273000002
1640.0	0.0011025	122.304000139
1640.0	0.0010985	122.351000071
1640.0	0.001095	122.382000208
1640.0	0.0010925	122.429000139
1640.0	0.001089	122.476000071
1640.0	0.0010875	122.507000208
1640.0	0.001086	122.554000139
1640.0	0.001086	122.601000071
1640.0	0.001085	122.632000208
1640.0	0.001085	122.679000139
1640.0	0.0010835	122.726000071
1640.0	0.0010815	122.757000208
1640.0	0.0010805	122.804000139
1640.0	0.00108	122.835000038
1640.0	0.0010785	122.882000208
1640.0	0.001078	122.929000139
1650.0	0.0010605	123.210000038
1650.0	0.001054	123.241000175
1650.0	0.001049	123.288000107
1650.0	0.001043	123.335000038
1650.0	0.0010375	123.366000175
1650.0	0.0010325	123.413000107
1650.0	0.0010285	123.460000038
1650.0	0.0010235	123.491000175
1650.0	0.00102	123.538000107
1650.0	0.0010165	123.570000172
1650.0	0.0010135	123.616000175
1650.0	0.0010105	123.663000107
1650.0	0.001009	123.695000172
1650.0	0.0010075	123.741000175
1650.0	0.0010055	123.788000107
1650.0	0.0010035	123.820000172
1650.0	0.0010015	123.867000103
1650.0	0.0010005	123.898000002
1650.0	0.0009985	123.945000172
1650.0	0.000998	123.992000103
1650.0	0.0009975	124.023000002
1650.0	0.0009965	124.070000172
1650.0	0.000996	124.117000103
1650.0	0.000996	124.148000002
1650.0	0.0009955	124.195000172
1660.0	0.000978	124.476000071
1660.0	0.000971	124.523000002
1660.0	0.0009655	124.570000172
1660.0	0.0009585	124.601000071
1660.0	0.000954	124.648000002
1660.0	0.000949	124.679000139
1660.0	0.000945	124.726000071
1660.0	0.000941	124.773000002
1660.0	0.000938	124.804000139
1660.0	0.000935	124.851000071
1660.0	0.000933	124.898000002
1660.0	0.00093	124.929000139
1660.0	0.0009265	124.976000071
1660.0	0.0009235	125.007000208
1660.0	0.0009215	125.054000139
1660.0	0.00092	125.101000071
1660.0	0.0009185	125.132000208
1660.0	0.0009175	125.179000139
1660.0	0.000916	125.226000071
1660.0	0.0009165	125.257000208
1660.0	0.000916	125.304000139
1660.0	0.0009165	125.335000038
1660.0	0.000916	125.382000208
1660.0	0.0009155	125.429000139
1660.0	0.000914	125.460000038
1670.0	0.0009	125.757000208
1670.0	0.000894	125.788000107
1670.0	0.000889	125.835000038
1670.0	0.000884	125.882000208
1670.0	0.0008785	125.913000107
1670.0	0.000874	125.960000038
1670.0	0.000869	126.007000208
1670.0	0.000866	126.039000034
1670.0	0.0008625	126.085000038
1670.0	0.00086	126.117000103
1670.0	0.0008565	126.164000034
1670.0	0.0008555	126.210000038
1670.0	0.000853	126.257000208
1670.0	0.0008525	126.289000034
1670.0	0.0008505	126.335000038
1670.0	0.00085	126.382000208
1670.0	0.0008485	126.414000034
1670.0	0.0008475	126.460000038
1670.0	0.000846	126.507000208
1670.0	0.0008455	126.539000034
1670.0	0.000845	126.585000038
1670.0	0.000845	126.632000208
1670.0	0.0008435	126.664000034
1670.0	0.0008435	126.710000038
1680.0	0.00083	126.992000103
1680.0	0.000824	127.039000034
1680.0	0.0008185	127.085000038
1680.0	0.0008125	127.117000103
1680.0	0.0008075	127.164000034
1680.0	0.0008035	127.210000038
1680.0	0.000799	127.242000103
1680.0	0.0007955	127.289000034
1680.0	0.000793	127.320000172
1680.0	0.00079	127.367000103
1680.0	0.0007865	127.414000034
1680.0	0.000784	127.445000172
1680.0	0.0007825	127.492000103
1680.0	0.00078	127.539000034
1680.0	0.0007785	127.570000172
1680.0	0.0007765	127.617000103
1680.0	0.000776	127.648000002
1680.0	0.000775	127.695000172
1680.0	0.000775	127.742000103
1680.0	0.000774	127.773000002
1680.0	0.000773	127.820000172
1680.0	0.0007725	127.867000103
1680.0	0.000771	127.898000002
1680.0	0.0007705	127.945000172
1680.0	0.000769	127.976000071
1690.0	0.0007575	128.273000002
1690.0	0.0007515	128.320000172
1690.0	0.0007475	128.351000071
1690.0	0.000743	128.398000002
1690.0	0.000739	128.445000172
1690.0	0.000735	128.476000071
1690.0	0.000731	128.523000002
1690.0	0.000728	128.570000172
1690.0	0.000725	128.601000071
1690.0	0.0007225	128.648000002
1690.0	0.00072	128.679000139
1690.0	0.000718	128.726000071
1690.0	0.000715	128.773000002
1690.0	0.000714	128.804000139
1690.0	0.0007125	128.851000071
1690.0	0.0007115	128.898000002
1690.0	0.00071	128.929000139
1690.0	0.000708	128.976000071
1690.0	0.000706	129.007000208
1690.0	0.000705	129.054000139
1690.0	0.000704	129.101000071
1690.0	0.000704	129.132000208
1690.0	0.0007035	129.179000139
1690.0	0.000704	129.226000071
1700.0	0.0006925	129.507000208
1700.0	0.0006875	129.554000139
1700.0	0.000683	129.601000071
1700.0	0.0006785	129.632000208
1700.0	0.000675	129.679000139
1700.0	0.00067	129.711000204
1700.0	0.0006675	129.757000208
1700.0	0.000665	129.804000139
1700.0	0.0006625	129.836000204
1700.0	0.00066	129.882000208
1700.0	0.0006585	129.929000139
1700.0	0.0006555	129.961000204
1700.0	0.000654	130.007000208
1700.0	0.000653	130.039000034
1700.0	0.0006515	130.086000204
1700.0	0.0006505	130.132000208
1700.0	0.00065	130.164000034
1700.0	0.000649	130.211000204
1700.0	0.0006485	130.257000208
1700.0	0.000648	130.289000034
1700.0	0.0006475	130.336000204
1700.0	0.0006465	130.383000135
1700.0	0.000645	130.414000034
1700.0	0.000644	130.461000204
1700.0	0.0006435	130.508000135
1710.0	0.0006335	130.789000034
1710.0	0.0006285	130.836000204
1710.0	0.000624	130.867000103
1710.0	0.0006185	130.914000034
1710.0	0.000615	130.961000204
1710.0	0.0006125	130.992000103
1710.0	0.000609	131.039000034
1710.0	0.000606	131.070000172
1710.0	0.000605	131.117000103
1710.0	0.000603	131.164000034
1710.0	0.000601	131.211000204
1710.0	0.0006	131.242000103
1710.0	0.0005985	131.289000034
1710.0	0.0005965	131.320000172
1710.0	0.0005955	131.367000103
1710.0	0.000595	131.414000034
1710.0	0.000594	131.445000172
1710.0	0.000593	131.492000103
1710.0	0.000591	131.539000034
1710.0	0.000591	131.570000172
1710.0	0.00059	131.617000103
1710.0	0.00059	131.648000002
1710.0	0.000589	131.695000172
1710.0	0.000589	131.742000103
1720.0	0.00058	132.023000002
1720.0	0.000576	132.070000172
1720.0	0.0005725	132.101000071
1720.0	0.0005685	132.148000002
1720.0	0.000565	132.195000172
1720.0	0.0005615	132.226000071
1720.0	0.0005585	132.273000002
1720.0	0.0005555	132.320000172
1720.0	0.0005535	132.351000071
1720.0	0.000551	132.398000002
1720.0	0.000549	132.429000139
1720.0	0.0005475	132.476000071
1720.0	0.000546	132.523000002
1720.0	0.000545	132.555000067
1720.0	0.0005435	132.601000071
1720.0	0.0005425	132.648000002
1720.0	0.0005425	132.680000067
1720.0	0.000541	132.726000071
1720.0	0.000541	132.758000135
1720.0	0.00054	132.805000067
1720.0	0.00054	132.851000071
1720.0	0.0005385	132.883000135
1720.0	0.0005385	132.930000067
1720.0	0.000538	132.976000071
1730.0	0.0005285	133.258000135
1730.0	0.000525	133.305000067
1730.0	0.0005205	133.336000204
1730.0	0.0005175	133.383000135
1730.0	0.000514	133.430000067
1730.0	0.000511	133.461000204
1730.0	0.000508	133.508000135
1730.0	0.0005055	133.539000034
1730.0	0.0005035	133.586000204
1730.0	0.000501	133.633000135
1730.0	0.000499	133.664000034
1730.0	0.000498	133.711000204
1730.0	0.0004965	133.758000135
1730.0	0.0004955	133.789000034
1730.0	0.000494	133.836000204
1730.0	0.000493	133.867000103
1730.0	0.000491	133.914000034
1730.0	0.000491	133.961000204
1730.0	0.0004905	133.992000103
1730.0	0.0004905	134.039000034
1730.0	0.000489	134.086000204
1730.0	0.00049	134.117000103
1730.0	0.0004885	134.164000034
1730.0	0.0004885	134.195000172
1730.0	0.000488	134.242000103
1740.0	0.0004785	134.523000002
1740.0	0.0004755	134.570000172
1740.0	0.0004725	134.617000103
1740.0	0.00047	134.648000002
1740.0	0.000466	134.695000172
1740.0	0.000464	134.742000103
1740.0	0.000461	134.789000034
1740.0	0.0004585	134.820000172
1740.0	0.0004565	134.867000103
1740.0	0.0004555	134.898000002
1740.0	0.0004535	134.945000172
1740.0	0.0004525	134.992000103
1740.0	0.000451	135.023000002
1740.0	0.0004505	135.070000172
1740.0	0.00045	135.117000103
1740.0	0.00045	135.148000002
1740.0	0.000449	135.195000172
1740.0	0.0004485	135.226999998
1740.0	0.000448	135.273000002
1740.0	0.0004475	135.320000172
1740.0	0.0004475	135.351999998
1740.0	0.000446	135.398000002
1740.0	0.0004455	135.445000172
1740.0	0.000445	135.476999998
1740.0	0.000445	135.523000002
1750.0	0.000436	135.805000067
1750.0	0.0004335	135.851999998
1750.0	0.00043	135.898000002
1750.0	0.0004265	135.930000067
1750.0	0.0004235	135.976999998
1750.0	0.00042	136.023000002
1750.0	0.0004175	136.055000067
1750.0	0.000415	136.101999998
1750.0	0.0004135	136.148000002
1750.0	0.0004115	136.180000067
1750.0	0.00041	136.226999998
1750.0	0.000409	136.258000135
1750.0	0.000408	136.305000067
1750.0	0.0004075	136.351999998
1750.0	0.0004065	136.383000135
1750.0	0.0004055	136.430000067
1750.0	0.000405	136.476999998
1750.0	0.000404	136.508000135
1750.0	0.000404	136.555000067
1750.0	0.000404	136.586000204
1750.0	0.000404	136.633000135
1750.0	0.0004035	136.680000067
1750.0	0.000403	136.711000204
1750.0	0.0004025	136.758000135
1750.0	0.0004025	136.805000067
1760.0	0.0003925	137.086000204
1760.0	0.0003885	137.133000135
1760.0	0.000386	137.164000034
1760.0	0.000383	137.211000204
1760.0	0.0003805	137.258000135
1760.0	0.0003765	137.289000034
1760.0	0.000374	137.336000204
1760.0	0.000371	137.383000135
1760.0	0.00037	137.414000034
1760.0	0.000368	137.461000204
1760.0	0.0003665	137.508000135
1760.0	0.0003655	137.539000034
1760.0	0.000364	137.586000204
1760.0	0.0003635	137.617000103
1760.0	0.0003625	137.664000034
1760.0	0.0003615	137.711000204
1760.0	0.0003615	137.742000103
1760.0	0.000361	137.789000034
1760.0	0.0003605	137.836000204
1760.0	0.00036	137.867000103
1760.0	0.00036	137.914000034
1760.0	0.000359	137.945000172
1760.0	0.000359	137.992000103
1760.0	0.0003585	138.039000034
1770.0	0.000349	138.320000172
1770.0	0.0003455	138.367000103
1770.0	0.0003425	138.414000034
1770.0	0.00034	138.445000172
1770.0	0.0003365	138.492000103
1770.0	0.000335	138.539000034
1770.0	0.0003325	138.570000172
1770.0	0.00033	138.617000103
1770.0	0.0003285	138.649000168
1770.0	0.0003265	138.695000172
1770.0	0.000325	138.742000103
1770.0	0.000323	138.774000168
1770.0	0.0003215	138.820000172
1770.0	0.000321	138.867000103
1770.0	0.00032	138.899000168
1770.0	0.000319	138.945000172
1770.0	0.0003185	138.976999998
1770.0	0.000318	139.024000168
1770.0	0.0003175	139.071000099
1770.0	0.0003165	139.101999998
1770.0	0.0003165	139.149000168
1770.0	0.0003165	139.196000099
1770.0	0.000316	139.226999998
1770.0	0.0003155	139.274000168
1770.0	0.000315	139.321000099
1780.0	0.0003075	139.601999998
1780.0	0.000304	139.649000168
1780.0	0.000301	139.680000067
1780.0	0.0002985	139.726999998
1780.0	0.000296	139.774000168
1780.0	0.0002935	139.805000067
1780.0	0.0002915	139.851999998
1780.0	0.000289	139.899000168
1780.0	0.0002865	139.930000067
1780.0	0.000285	139.976999998
1780.0	0.0002835	140.008000135
1780.0	0.0002825	140.055000067
1780.0	0.000281	140.101999998
1780.0	0.0002805	140.133000135
1780.0	0.00028	140.180000067
1780.0	0.0002785	140.226999998
1780.0	0.000279	140.258000135
1780.0	0.0002785	140.305000067
1780.0	0.0002775	140.336000204
1780.0	0.0002765	140.383000135
1780.0	0.0002765	140.430000067
1780.0	0.0002755	140.461000204
1780.0	0.000275	140.508000135
1780.0	0.000275	140.555000067
1790.0	0.000266	140.836000204
1790.0	0.000263	140.883000135
1790.0	0.0002605	140.930000067
1790.0	0.000258	140.961000204
1790.0	0.000255	141.008000135
1790.0	0.000253	141.039000034
1790.0	0.000251	141.086000204
1790.0	0.0002485	141.133000135
1790.0	0.0002475	141.164000034
1790.0	0.0002455	141.211000204
1790.0	0.0002435	141.258000135
1790.0	0.0002425	141.289000034
1790.0	0.0002415	141.336000204
1790.0	0.00024	141.368000031
1790.0	0.000239	141.414000034
1790.0	0.000239	141.461000204
1790.0	0.0002385	141.493000031
1790.0	0.000238	141.539000034
1790.0	0.000238	141.586000204
1790.0	0.0002375	141.618000031
1790.0	0.0002365	141.664000034
1790.0	0.0002365	141.696000099
1790.0	0.000236	141.743000031
1790.0	0.0002355	141.789000034
1790.0	0.000235	141.821000099
1800.0	0.000228	142.118000031
1800.0	0.000225	142.164000034
1800.0	0.0002225	142.196000099
1800.0	0.00022	142.243000031
1800.0	0.000216	142.274000168
1800.0	0.000214	142.321000099
1800.0	0.0002125	142.368000031
1800.0	0.00021	142.399000168
1800.0	0.000209	142.446000099
1800.0	0.0002075	142.493000031
1800.0	0.000206	142.524000168
1800.0	0.000205	142.571000099
1800.0	0.000204	142.618000031
1800.0	0.000203	142.649000168
1800.0	0.0002025	142.696000099
1800.0	0.0002015	142.726999998
1800.0	0.000201	142.774000168
1800.0	0.000201	142.821000099
1800.0	0.0002005	142.851999998
1800.0	0.0002	142.899000168
1800.0	0.000199	142.946000099
1800.0	0.0001985	142.976999998
1800.0	0.0001985	143.024000168
1800.0	0.0001985	143.055000067
