Your edit line - do NOT delete this line
Wavelength [nm], Voltage [V], Elapsed time [s]
800.0	8.45e-05	16.0
800.0	8.4e-05	16.0460000038
800.0	8.3e-05	16.0930001736
800.0	8.2e-05	16.125
800.0	8.05e-05	16.1710000038
800.0	7.9e-05	16.2030000687
800.0	7.8e-05	16.25
800.0	7.78e-05	16.2960000038
800.0	7.75e-05	16.3280000687
800.0	7.75e-05	16.375
800.0	7.75e-05	16.4210000038
800.0	7.75e-05	16.4530000687
800.0	7.75e-05	16.5
800.0	7.78e-05	16.5310001373
800.0	7.78e-05	16.5780000687
800.0	7.8e-05	16.625
800.0	7.88e-05	16.6560001373
800.0	7.93e-05	16.7030000687
800.0	7.95e-05	16.75
800.0	7.93e-05	16.7810001373
800.0	7.9e-05	16.8280000687
800.0	7.88e-05	16.875
800.0	7.83e-05	16.9060001373
800.0	7.8e-05	16.9530000687
800.0	7.8e-05	16.984000206
800.0	7.88e-05	17.0310001373
800.0	7.9e-05	17.0780000687
800.0	7.93e-05	17.109000206
800.0	7.95e-05	17.1560001373
800.0	8.03e-05	17.2030000687
800.0	8.05e-05	17.234000206
800.0	8.05e-05	17.2810001373
800.0	8.03e-05	17.3120000362
800.0	7.95e-05	17.359000206
800.0	7.88e-05	17.4060001373
800.0	7.8e-05	17.4370000362
800.0	7.75e-05	17.484000206
810.0	8.05e-05	17.8280000687
810.0	8.13e-05	17.859000206
810.0	8.2e-05	17.9060001373
810.0	8.3e-05	17.9530000687
810.0	8.3e-05	17.984000206
810.0	8.38e-05	18.0310001373
810.0	8.45e-05	18.0780000687
810.0	8.5e-05	18.109000206
810.0	8.43e-05	18.1560001373
810.0	8.4e-05	18.1870000362
810.0	8.43e-05	18.234000206
810.0	8.45e-05	18.2810001373
810.0	8.53e-05	18.3120000362
810.0	8.53e-05	18.359000206
810.0	8.45e-05	18.4060001373
810.0	8.4e-05	18.4370000362
810.0	8.38e-05	18.484000206
810.0	8.33e-05	18.5150001049
810.0	8.3e-05	18.5620000362
810.0	8.3e-05	18.609000206
810.0	8.33e-05	18.6400001049
810.0	8.33e-05	18.6870000362
810.0	8.33e-05	18.734000206
810.0	8.33e-05	18.7650001049
810.0	8.33e-05	18.8120000362
810.0	8.38e-05	18.859000206
810.0	8.3e-05	18.8900001049
810.0	8.25e-05	18.9370000362
810.0	8.28e-05	18.9680001736
810.0	8.38e-05	19.0150001049
810.0	8.38e-05	19.0620000362
810.0	8.33e-05	19.0930001736
810.0	8.38e-05	19.1400001049
810.0	8.4e-05	19.1870000362
810.0	8.4e-05	19.2180001736
810.0	8.4e-05	19.2650001049
810.0	8.33e-05	19.2960000038
820.0	8.83e-05	19.6400001049
820.0	8.95e-05	19.6710000038
820.0	9.05e-05	19.7180001736
820.0	9.08e-05	19.7650001049
820.0	9.03e-05	19.7960000038
820.0	9.05e-05	19.8430001736
820.0	9.18e-05	19.8900001049
820.0	9.25e-05	19.9210000038
820.0	9.18e-05	19.9680001736
820.0	9.15e-05	20.0150001049
820.0	9.13e-05	20.0460000038
820.0	9.13e-05	20.0930001736
820.0	9.05e-05	20.125
820.0	9.13e-05	20.1710000038
820.0	9.15e-05	20.2180001736
820.0	9.13e-05	20.25
820.0	9.13e-05	20.2960000038
820.0	9.08e-05	20.3430001736
820.0	9.05e-05	20.375
820.0	9.03e-05	20.4210000038
820.0	8.95e-05	20.4680001736
820.0	8.93e-05	20.5
820.0	8.93e-05	20.5460000038
820.0	8.95e-05	20.5780000687
820.0	8.95e-05	20.625
820.0	9e-05	20.6710000038
820.0	9.03e-05	20.7030000687
820.0	9.03e-05	20.75
820.0	9.03e-05	20.7960000038
820.0	9.05e-05	20.8280000687
820.0	9.08e-05	20.875
820.0	9.13e-05	20.9060001373
820.0	9.18e-05	20.9530000687
820.0	9.13e-05	21.0
820.0	9.03e-05	21.0310001373
820.0	8.95e-05	21.0780000687
820.0	9e-05	21.125
830.0	9.4e-05	21.4530000687
830.0	9.63e-05	21.484000206
830.0	9.75e-05	21.5310001373
830.0	9.8e-05	21.5780000687
830.0	9.88e-05	21.609000206
830.0	9.9e-05	21.6560001373
830.0	9.93e-05	21.7030000687
830.0	9.95e-05	21.734000206
830.0	9.93e-05	21.7810001373
830.0	9.83e-05	21.8280000687
830.0	9.75e-05	21.859000206
830.0	9.75e-05	21.9060001373
830.0	9.68e-05	21.9370000362
830.0	9.68e-05	21.984000206
830.0	9.68e-05	22.0310001373
830.0	9.68e-05	22.0780000687
830.0	9.68e-05	22.109000206
830.0	9.75e-05	22.1560001373
830.0	9.75e-05	22.1870000362
830.0	9.8e-05	22.234000206
830.0	9.8e-05	22.2810001373
830.0	9.83e-05	22.3120000362
830.0	9.8e-05	22.359000206
830.0	9.88e-05	22.4060001373
830.0	9.9e-05	22.4370000362
830.0	9.88e-05	22.484000206
830.0	9.88e-05	22.5150001049
830.0	9.9e-05	22.5620000362
830.0	9.9e-05	22.609000206
830.0	9.93e-05	22.6400001049
830.0	9.93e-05	22.6870000362
830.0	9.88e-05	22.734000206
830.0	9.8e-05	22.7650001049
830.0	9.78e-05	22.8120000362
830.0	9.7e-05	22.859000206
830.0	9.75e-05	22.8900001049
830.0	9.75e-05	22.9370000362
840.0	0.0001025	23.25
840.0	0.0001038	23.2960000038
840.0	0.0001045	23.3430001736
840.0	0.0001058	23.375
840.0	0.0001068	23.4210000038
840.0	0.0001075	23.4680001736
840.0	0.0001075	23.5
840.0	0.000108	23.5460000038
840.0	0.0001083	23.5930001736
840.0	0.0001088	23.625
840.0	0.0001083	23.6710000038
840.0	0.000108	23.7030000687
840.0	0.0001078	23.75
840.0	0.000107	23.7960000038
840.0	0.0001065	23.8280000687
840.0	0.0001068	23.875
840.0	0.0001068	23.9210000038
840.0	0.000107	23.9530000687
840.0	0.0001078	24.0
840.0	0.000108	24.0310001373
840.0	0.000108	24.0780000687
840.0	0.0001075	24.125
840.0	0.0001078	24.1560001373
840.0	0.0001075	24.2030000687
840.0	0.0001078	24.25
840.0	0.0001078	24.2810001373
840.0	0.0001078	24.3280000687
840.0	0.000108	24.359000206
840.0	0.000108	24.4060001373
840.0	0.0001075	24.4530000687
840.0	0.0001065	24.484000206
840.0	0.0001068	24.5310001373
840.0	0.000107	24.5780000687
840.0	0.000107	24.609000206
840.0	0.0001068	24.6560001373
840.0	0.000107	24.7030000687
840.0	0.0001075	24.734000206
850.0	0.0001115	25.0620000362
850.0	0.0001133	25.0930001736
850.0	0.0001145	25.1400001049
850.0	0.0001155	25.1870000362
850.0	0.0001163	25.2180001736
850.0	0.0001168	25.2650001049
850.0	0.0001175	25.2960000038
850.0	0.000118	25.3430001736
850.0	0.000118	25.3900001049
850.0	0.000118	25.4210000038
850.0	0.0001188	25.4680001736
850.0	0.000119	25.5150001049
850.0	0.000118	25.5460000038
850.0	0.000117	25.5930001736
850.0	0.0001168	25.625
850.0	0.0001163	25.6710000038
850.0	0.0001158	25.7180001736
850.0	0.0001165	25.75
850.0	0.0001165	25.7960000038
850.0	0.0001168	25.8430001736
850.0	0.0001178	25.875
850.0	0.000118	25.9210000038
850.0	0.000118	25.9530000687
850.0	0.0001183	26.0
850.0	0.0001188	26.0460000038
850.0	0.0001188	26.0780000687
850.0	0.000119	26.125
850.0	0.0001188	26.1710000038
850.0	0.0001188	26.2030000687
850.0	0.0001188	26.25
850.0	0.000119	26.2960000038
850.0	0.0001188	26.3280000687
850.0	0.000118	26.375
850.0	0.000118	26.4060001373
850.0	0.0001188	26.4530000687
850.0	0.000119	26.5
850.0	0.00012	26.5310001373
860.0	0.000123	26.859000206
860.0	0.0001243	26.8900001049
860.0	0.0001255	26.9370000362
860.0	0.0001268	26.984000206
860.0	0.000127	27.0150001049
860.0	0.0001278	27.0620000362
860.0	0.000128	27.109000206
860.0	0.0001283	27.1400001049
860.0	0.000128	27.1870000362
860.0	0.0001288	27.2180001736
860.0	0.000129	27.2650001049
860.0	0.0001295	27.3120000362
860.0	0.00013	27.3430001736
860.0	0.00013	27.3900001049
860.0	0.0001293	27.4370000362
860.0	0.0001293	27.484000206
860.0	0.00013	27.5150001049
860.0	0.00013	27.5620000362
860.0	0.0001305	27.5930001736
860.0	0.0001308	27.6400001049
860.0	0.0001313	27.6870000362
860.0	0.0001308	27.7180001736
860.0	0.0001313	27.7650001049
860.0	0.0001308	27.8120000362
860.0	0.0001305	27.8430001736
860.0	0.0001303	27.8900001049
860.0	0.0001305	27.9370000362
860.0	0.0001308	27.9680001736
860.0	0.0001313	28.0150001049
860.0	0.0001308	28.0620000362
860.0	0.0001305	28.0930001736
860.0	0.0001303	28.1400001049
860.0	0.00013	28.1710000038
860.0	0.0001303	28.2180001736
860.0	0.0001303	28.2650001049
860.0	0.00013	28.2960000038
860.0	0.0001303	28.3430001736
870.0	0.0001358	28.6560001373
870.0	0.000137	28.7030000687
870.0	0.000139	28.734000206
870.0	0.0001403	28.7810001373
870.0	0.0001413	28.8280000687
870.0	0.000142	28.859000206
870.0	0.0001425	28.9060001373
870.0	0.000143	28.9530000687
870.0	0.0001438	28.984000206
870.0	0.000144	29.0310001373
870.0	0.000144	29.0620000362
870.0	0.0001443	29.109000206
870.0	0.000145	29.1560001373
870.0	0.000145	29.1870000362
870.0	0.0001455	29.234000206
870.0	0.0001455	29.2810001373
870.0	0.0001453	29.3120000362
870.0	0.0001463	29.359000206
870.0	0.0001468	29.4060001373
870.0	0.0001468	29.4370000362
870.0	0.0001468	29.484000206
870.0	0.0001468	29.5150001049
870.0	0.0001475	29.5620000362
870.0	0.0001478	29.609000206
870.0	0.0001478	29.6400001049
870.0	0.0001468	29.6870000362
870.0	0.0001455	29.734000206
870.0	0.0001453	29.7650001049
870.0	0.0001453	29.8120000362
870.0	0.0001463	29.8430001736
870.0	0.0001463	29.8900001049
870.0	0.0001465	29.9370000362
870.0	0.0001463	29.9680001736
870.0	0.0001455	30.0150001049
870.0	0.0001453	30.0620000362
870.0	0.000145	30.0930001736
870.0	0.0001445	30.1400001049
880.0	0.0001525	30.4530000687
880.0	0.0001555	30.5
880.0	0.0001575	30.5310001373
880.0	0.0001583	30.5780000687
880.0	0.0001593	30.625
880.0	0.0001605	30.6560001373
880.0	0.0001605	30.7030000687
880.0	0.0001608	30.734000206
880.0	0.0001613	30.7810001373
880.0	0.0001615	30.8280000687
880.0	0.000162	30.859000206
880.0	0.0001625	30.9060001373
880.0	0.0001628	30.9530000687
880.0	0.0001628	30.984000206
880.0	0.0001628	31.0310001373
880.0	0.0001625	31.0620000362
880.0	0.0001625	31.109000206
880.0	0.000162	31.1560001373
880.0	0.000162	31.1870000362
880.0	0.000162	31.234000206
880.0	0.0001625	31.2810001373
880.0	0.0001625	31.3120000362
880.0	0.000162	31.359000206
880.0	0.000162	31.4060001373
880.0	0.000162	31.4370000362
880.0	0.0001618	31.484000206
880.0	0.0001618	31.5150001049
880.0	0.0001618	31.5620000362
880.0	0.0001625	31.609000206
880.0	0.0001628	31.6400001049
880.0	0.0001628	31.6870000362
880.0	0.0001628	31.734000206
880.0	0.0001618	31.7650001049
880.0	0.0001615	31.8120000362
880.0	0.0001615	31.8430001736
880.0	0.0001618	31.8900001049
880.0	0.000162	31.9370000362
890.0	0.000168	32.234000206
890.0	0.0001705	32.2810001373
890.0	0.0001725	32.3280000687
890.0	0.0001745	32.375
890.0	0.0001763	32.4060001373
890.0	0.0001765	32.4530000687
890.0	0.0001765	32.484000206
890.0	0.0001768	32.5310001373
890.0	0.0001765	32.5780000687
890.0	0.0001768	32.609000206
890.0	0.0001778	32.6560001373
890.0	0.000179	32.7030000687
890.0	0.00018	32.734000206
890.0	0.0001808	32.7810001373
890.0	0.0001815	32.8120000362
890.0	0.0001818	32.859000206
890.0	0.000182	32.9060001373
890.0	0.000182	32.9370000362
890.0	0.000182	32.984000206
890.0	0.0001815	33.0310001373
890.0	0.0001808	33.0620000362
890.0	0.0001803	33.109000206
890.0	0.0001795	33.1560001373
890.0	0.00018	33.1870000362
890.0	0.00018	33.234000206
890.0	0.0001795	33.2650001049
890.0	0.0001795	33.3120000362
890.0	0.000179	33.359000206
890.0	0.0001788	33.3900001049
890.0	0.0001788	33.4370000362
890.0	0.0001793	33.484000206
890.0	0.0001795	33.5150001049
890.0	0.00018	33.5620000362
890.0	0.0001808	33.609000206
890.0	0.0001813	33.6400001049
890.0	0.0001813	33.6870000362
890.0	0.0001813	33.734000206
900.0	0.0001883	34.0310001373
900.0	0.0001908	34.0780000687
900.0	0.000193	34.125
900.0	0.0001945	34.1560001373
900.0	0.0001963	34.2030000687
900.0	0.0001968	34.234000206
900.0	0.0001968	34.2810001373
900.0	0.0001978	34.3280000687
900.0	0.000198	34.359000206
900.0	0.000198	34.4060001373
900.0	0.0001988	34.4530000687
900.0	0.0001993	34.484000206
900.0	0.0001995	34.5310001373
900.0	0.0001993	34.5620000362
900.0	0.000199	34.609000206
900.0	0.0001993	34.6560001373
900.0	0.0001995	34.6870000362
900.0	0.0002	34.734000206
900.0	0.0002	34.7810001373
900.0	0.0001995	34.8120000362
900.0	0.0001995	34.859000206
900.0	0.0002	34.8900001049
900.0	0.0002	34.9370000362
900.0	0.0002005	34.984000206
900.0	0.0002003	35.0150001049
900.0	0.0002	35.0620000362
900.0	0.0002	35.109000206
900.0	0.0002	35.1400001049
900.0	0.0002	35.1870000362
900.0	0.0002008	35.234000206
900.0	0.0002008	35.2650001049
900.0	0.0002005	35.3120000362
900.0	0.0002005	35.3430001736
900.0	0.0002005	35.3900001049
900.0	0.0002005	35.4370000362
900.0	0.0002003	35.4680001736
900.0	0.0002005	35.5150001049
910.0	0.000209	35.8280000687
910.0	0.0002118	35.859000206
910.0	0.0002138	35.9060001373
910.0	0.0002153	35.9530000687
910.0	0.000217	35.984000206
910.0	0.000218	36.0310001373
910.0	0.0002193	36.0620000362
910.0	0.00022	36.109000206
910.0	0.0002203	36.1560001373
910.0	0.0002205	36.2030000687
910.0	0.0002205	36.234000206
910.0	0.0002205	36.2810001373
910.0	0.0002205	36.3120000362
910.0	0.0002208	36.359000206
910.0	0.0002208	36.4060001373
910.0	0.0002218	36.4370000362
910.0	0.000222	36.484000206
910.0	0.000223	36.5310001373
910.0	0.0002233	36.5620000362
910.0	0.0002233	36.609000206
910.0	0.0002233	36.6400001049
910.0	0.0002233	36.6870000362
910.0	0.000223	36.734000206
910.0	0.000223	36.7650001049
910.0	0.0002225	36.8120000362
910.0	0.000222	36.859000206
910.0	0.000222	36.9060001373
910.0	0.0002225	36.9370000362
910.0	0.000222	36.984000206
910.0	0.0002218	37.0150001049
910.0	0.0002213	37.0620000362
910.0	0.0002215	37.109000206
910.0	0.0002225	37.1400001049
910.0	0.0002228	37.1870000362
910.0	0.0002228	37.234000206
910.0	0.0002233	37.2650001049
910.0	0.000223	37.3120000362
920.0	0.0002325	37.625
920.0	0.0002345	37.6710000038
920.0	0.0002368	37.7030000687
920.0	0.0002383	37.75
920.0	0.0002403	37.7960000038
920.0	0.000242	37.8280000687
920.0	0.000243	37.875
920.0	0.000244	37.9210000038
920.0	0.0002443	37.9530000687
920.0	0.0002445	38.0
920.0	0.0002445	38.0460000038
920.0	0.0002455	38.0780000687
920.0	0.0002463	38.125
920.0	0.0002455	38.1560001373
920.0	0.0002453	38.2030000687
920.0	0.000245	38.25
920.0	0.0002445	38.2810001373
920.0	0.000245	38.3280000687
920.0	0.000245	38.375
920.0	0.000245	38.4060001373
920.0	0.0002453	38.4530000687
920.0	0.0002455	38.484000206
920.0	0.0002453	38.5310001373
920.0	0.0002445	38.5780000687
920.0	0.0002445	38.609000206
920.0	0.0002445	38.6560001373
920.0	0.000244	38.7030000687
920.0	0.0002438	38.75
920.0	0.0002438	38.7810001373
920.0	0.0002428	38.8280000687
920.0	0.000243	38.859000206
920.0	0.000243	38.9060001373
920.0	0.0002428	38.9530000687
920.0	0.000243	38.984000206
920.0	0.0002438	39.0310001373
920.0	0.0002443	39.0780000687
930.0	0.0002558	39.375
930.0	0.00026	39.4060001373
930.0	0.0002628	39.4530000687
930.0	0.0002645	39.5
930.0	0.0002658	39.5310001373
930.0	0.0002668	39.5780000687
930.0	0.0002688	39.625
930.0	0.0002703	39.6560001373
930.0	0.0002708	39.7030000687
930.0	0.0002713	39.734000206
930.0	0.0002715	39.7810001373
930.0	0.0002713	39.8280000687
930.0	0.0002705	39.859000206
930.0	0.0002708	39.9060001373
930.0	0.0002703	39.9530000687
930.0	0.0002703	39.984000206
930.0	0.0002715	40.0310001373
930.0	0.0002718	40.0620000362
930.0	0.0002715	40.109000206
930.0	0.0002718	40.1560001373
930.0	0.0002713	40.1870000362
930.0	0.0002705	40.234000206
930.0	0.0002695	40.2810001373
930.0	0.0002693	40.3120000362
930.0	0.0002693	40.359000206
930.0	0.0002693	40.4060001373
930.0	0.0002695	40.4370000362
930.0	0.0002693	40.484000206
930.0	0.0002693	40.5310001373
930.0	0.000269	40.5620000362
930.0	0.0002688	40.609000206
930.0	0.000269	40.6560001373
930.0	0.0002695	40.6870000362
930.0	0.00027	40.734000206
930.0	0.00027	40.7650001049
930.0	0.00027	40.8120000362
930.0	0.00027	40.859000206
940.0	0.0002795	41.1560001373
940.0	0.0002833	41.1870000362
940.0	0.0002858	41.234000206
940.0	0.0002878	41.2650001049
940.0	0.0002893	41.3120000362
940.0	0.0002908	41.359000206
940.0	0.0002915	41.3900001049
940.0	0.0002928	41.4370000362
940.0	0.0002933	41.484000206
940.0	0.0002933	41.5150001049
940.0	0.0002938	41.5620000362
940.0	0.000295	41.609000206
940.0	0.0002955	41.6400001049
940.0	0.0002963	41.6870000362
940.0	0.0002968	41.7180001736
940.0	0.0002963	41.7650001049
940.0	0.0002953	41.8120000362
940.0	0.0002955	41.8430001736
940.0	0.0002963	41.8900001049
940.0	0.0002968	41.9210000038
940.0	0.0002975	41.9680001736
940.0	0.0002975	42.0150001049
940.0	0.0002968	42.0460000038
940.0	0.0002958	42.0930001736
940.0	0.0002965	42.1400001049
940.0	0.0002968	42.1710000038
940.0	0.000297	42.2180001736
940.0	0.000297	42.2650001049
940.0	0.000297	42.2960000038
940.0	0.0002968	42.3430001736
940.0	0.000297	42.375
940.0	0.0002965	42.4210000038
940.0	0.0002955	42.4680001736
940.0	0.0002955	42.5
940.0	0.0002963	42.5460000038
940.0	0.0002958	42.5930001736
940.0	0.0002953	42.625
950.0	0.0003043	42.9210000038
950.0	0.000307	42.9680001736
950.0	0.0003095	43.0
950.0	0.0003118	43.0460000038
950.0	0.0003138	43.0930001736
950.0	0.0003145	43.125
950.0	0.0003158	43.1710000038
950.0	0.0003168	43.2180001736
950.0	0.000318	43.25
950.0	0.000319	43.2960000038
950.0	0.0003195	43.3280000687
950.0	0.0003195	43.375
950.0	0.0003195	43.4210000038
950.0	0.0003203	43.4530000687
950.0	0.0003205	43.5
950.0	0.0003208	43.5460000038
950.0	0.0003213	43.5780000687
950.0	0.0003215	43.625
950.0	0.000322	43.6560001373
950.0	0.000322	43.7030000687
950.0	0.0003225	43.75
950.0	0.0003228	43.7810001373
950.0	0.0003228	43.8280000687
950.0	0.0003213	43.875
950.0	0.0003203	43.9060001373
950.0	0.0003203	43.9530000687
950.0	0.0003205	44.0
950.0	0.0003208	44.0310001373
950.0	0.0003213	44.0780000687
950.0	0.0003208	44.125
950.0	0.0003208	44.1560001373
950.0	0.0003208	44.2030000687
950.0	0.0003213	44.25
950.0	0.0003208	44.2810001373
950.0	0.0003208	44.3280000687
950.0	0.0003208	44.375
960.0	0.00033	44.6560001373
960.0	0.000333	44.7030000687
960.0	0.0003363	44.734000206
960.0	0.0003388	44.7810001373
960.0	0.0003408	44.8280000687
960.0	0.0003428	44.859000206
960.0	0.0003433	44.9060001373
960.0	0.000344	44.9370000362
960.0	0.0003445	44.984000206
960.0	0.0003453	45.0310001373
960.0	0.0003445	45.0620000362
960.0	0.000345	45.109000206
960.0	0.0003455	45.1560001373
960.0	0.000345	45.1870000362
960.0	0.000345	45.234000206
960.0	0.0003453	45.2650001049
960.0	0.0003455	45.3120000362
960.0	0.0003455	45.359000206
960.0	0.0003458	45.3900001049
960.0	0.0003463	45.4370000362
960.0	0.0003455	45.484000206
960.0	0.000345	45.5310001373
960.0	0.0003445	45.5620000362
960.0	0.0003445	45.609000206
960.0	0.0003453	45.6400001049
960.0	0.0003453	45.6870000362
960.0	0.0003453	45.734000206
960.0	0.0003453	45.7650001049
960.0	0.000345	45.8120000362
960.0	0.0003443	45.859000206
960.0	0.0003443	45.8900001049
960.0	0.000344	45.9370000362
960.0	0.000343	45.9680001736
960.0	0.000343	46.0150001049
960.0	0.0003433	46.0620000362
960.0	0.0003433	46.109000206
970.0	0.000354	46.3900001049
970.0	0.0003565	46.4210000038
970.0	0.0003593	46.4680001736
970.0	0.0003613	46.5150001049
970.0	0.000363	46.5460000038
970.0	0.000365	46.5930001736
970.0	0.0003663	46.625
970.0	0.000367	46.6710000038
970.0	0.0003678	46.7180001736
970.0	0.0003683	46.75
970.0	0.0003683	46.7960000038
970.0	0.0003678	46.8430001736
970.0	0.000368	46.875
970.0	0.0003683	46.9210000038
970.0	0.000369	46.9530000687
970.0	0.0003693	47.0
970.0	0.0003693	47.0460000038
970.0	0.000369	47.0780000687
970.0	0.0003688	47.125
970.0	0.0003688	47.1710000038
970.0	0.000369	47.2030000687
970.0	0.000369	47.25
970.0	0.0003688	47.2960000038
970.0	0.0003683	47.3280000687
970.0	0.0003678	47.375
970.0	0.0003665	47.4060001373
970.0	0.0003658	47.4530000687
970.0	0.0003658	47.5
970.0	0.0003658	47.5310001373
970.0	0.0003658	47.5780000687
970.0	0.0003665	47.625
970.0	0.0003668	47.6560001373
970.0	0.0003668	47.7030000687
970.0	0.0003665	47.734000206
970.0	0.0003658	47.7810001373
970.0	0.0003658	47.8280000687
970.0	0.0003655	47.859000206
980.0	0.0003765	48.1400001049
980.0	0.000379	48.1870000362
980.0	0.0003813	48.234000206
980.0	0.0003833	48.2650001049
980.0	0.0003853	48.3120000362
980.0	0.0003863	48.359000206
980.0	0.0003868	48.3900001049
980.0	0.0003878	48.4370000362
980.0	0.0003888	48.484000206
980.0	0.0003895	48.5150001049
980.0	0.0003903	48.5620000362
980.0	0.0003908	48.5930001736
980.0	0.0003905	48.6400001049
980.0	0.0003903	48.6870000362
980.0	0.0003908	48.7180001736
980.0	0.0003908	48.7650001049
980.0	0.0003913	48.8120000362
980.0	0.0003925	48.8430001736
980.0	0.0003928	48.8900001049
980.0	0.000393	48.9210000038
980.0	0.0003933	48.9680001736
980.0	0.0003933	49.0150001049
980.0	0.000393	49.0460000038
980.0	0.0003933	49.0930001736
980.0	0.0003938	49.1400001049
980.0	0.000393	49.1710000038
980.0	0.000392	49.2180001736
980.0	0.000392	49.25
980.0	0.000392	49.2960000038
980.0	0.0003925	49.3430001736
980.0	0.0003928	49.3900001049
980.0	0.000392	49.4210000038
980.0	0.000392	49.4680001736
980.0	0.0003925	49.5
980.0	0.0003918	49.5460000038
980.0	0.0003908	49.5930001736
980.0	0.0003905	49.625
990.0	0.0003978	49.9060001373
990.0	0.0004005	49.9530000687
990.0	0.0004025	49.984000206
990.0	0.0004053	50.0310001373
990.0	0.0004083	50.0780000687
990.0	0.0004095	50.109000206
990.0	0.0004103	50.1560001373
990.0	0.0004108	50.2030000687
990.0	0.0004113	50.234000206
990.0	0.0004113	50.2810001373
990.0	0.0004115	50.3280000687
990.0	0.0004118	50.359000206
990.0	0.0004118	50.4060001373
990.0	0.0004115	50.4370000362
990.0	0.0004113	50.484000206
990.0	0.000412	50.5310001373
990.0	0.0004133	50.5780000687
990.0	0.0004138	50.609000206
990.0	0.000414	50.6560001373
990.0	0.000414	50.6870000362
990.0	0.000414	50.734000206
990.0	0.000413	50.7810001373
990.0	0.0004128	50.8120000362
990.0	0.0004128	50.859000206
990.0	0.0004125	50.9060001373
990.0	0.0004128	50.9370000362
990.0	0.0004125	50.984000206
990.0	0.0004125	51.0310001373
990.0	0.0004125	51.0620000362
990.0	0.0004125	51.109000206
990.0	0.000412	51.1560001373
990.0	0.000412	51.1870000362
990.0	0.000412	51.234000206
990.0	0.0004115	51.2810001373
990.0	0.0004108	51.3120000362
990.0	0.0004108	51.359000206
1000.0	0.0004218	51.6400001049
1000.0	0.0004245	51.6870000362
1000.0	0.0004268	51.7180001736
1000.0	0.0004293	51.7650001049
1000.0	0.0004305	51.7960000038
1000.0	0.0004315	51.8430001736
1000.0	0.0004325	51.8900001049
1000.0	0.000433	51.9210000038
1000.0	0.0004333	51.9680001736
1000.0	0.0004333	52.0150001049
1000.0	0.0004338	52.0460000038
1000.0	0.000434	52.0930001736
1000.0	0.0004333	52.125
1000.0	0.000433	52.1710000038
1000.0	0.0004325	52.2180001736
1000.0	0.0004325	52.25
1000.0	0.0004325	52.2960000038
1000.0	0.000432	52.3430001736
1000.0	0.000432	52.375
1000.0	0.0004325	52.4210000038
1000.0	0.000433	52.4530000687
1000.0	0.0004338	52.5
1000.0	0.000434	52.5460000038
1000.0	0.000435	52.5780000687
1000.0	0.000435	52.625
1000.0	0.000435	52.6710000038
1000.0	0.0004345	52.7030000687
1000.0	0.0004345	52.75
1000.0	0.000434	52.7810001373
1000.0	0.0004343	52.8280000687
1000.0	0.0004345	52.875
1000.0	0.000435	52.9060001373
1000.0	0.0004355	52.9530000687
1000.0	0.0004353	53.0
1000.0	0.0004345	53.0310001373
1000.0	0.0004345	53.0780000687
1000.0	0.0004345	53.125
1010.0	0.000442	53.3900001049
1010.0	0.0004455	53.4370000362
1010.0	0.0004483	53.484000206
1010.0	0.0004505	53.5150001049
1010.0	0.000452	53.5620000362
1010.0	0.0004528	53.609000206
1010.0	0.000454	53.6400001049
1010.0	0.0004545	53.6870000362
1010.0	0.000455	53.7180001736
1010.0	0.0004555	53.7650001049
1010.0	0.0004558	53.8120000362
1010.0	0.0004563	53.8430001736
1010.0	0.0004568	53.8900001049
1010.0	0.000457	53.9370000362
1010.0	0.0004568	53.9680001736
1010.0	0.0004568	54.0150001049
1010.0	0.000458	54.0460000038
1010.0	0.000458	54.0930001736
1010.0	0.000458	54.1400001049
1010.0	0.0004583	54.1710000038
1010.0	0.0004588	54.2180001736
1010.0	0.000458	54.2650001049
1010.0	0.000458	54.2960000038
1010.0	0.000458	54.3430001736
1010.0	0.0004578	54.375
1010.0	0.0004568	54.4210000038
1010.0	0.0004568	54.4680001736
1010.0	0.0004568	54.5
1010.0	0.0004565	54.5460000038
1010.0	0.0004568	54.5930001736
1010.0	0.000457	54.625
1010.0	0.0004565	54.6710000038
1010.0	0.0004563	54.7180001736
1010.0	0.0004555	54.75
1010.0	0.0004553	54.7960000038
1010.0	0.0004553	54.8280000687
1010.0	0.0004553	54.875
1020.0	0.0004645	55.1560001373
1020.0	0.0004668	55.2030000687
1020.0	0.0004693	55.234000206
1020.0	0.0004718	55.2810001373
1020.0	0.0004738	55.3120000362
1020.0	0.000475	55.359000206
1020.0	0.0004763	55.4060001373
1020.0	0.000477	55.4370000362
1020.0	0.000478	55.484000206
1020.0	0.000479	55.5310001373
1020.0	0.0004803	55.5620000362
1020.0	0.0004805	55.609000206
1020.0	0.0004803	55.6400001049
1020.0	0.00048	55.6870000362
1020.0	0.0004793	55.734000206
1020.0	0.000479	55.7650001049
1020.0	0.000479	55.8120000362
1020.0	0.0004793	55.859000206
1020.0	0.0004795	55.8900001049
1020.0	0.00048	55.9370000362
1020.0	0.0004795	55.9680001736
1020.0	0.0004793	56.0150001049
1020.0	0.0004793	56.0620000362
1020.0	0.0004793	56.0930001736
1020.0	0.0004793	56.1400001049
1020.0	0.0004793	56.1870000362
1020.0	0.0004793	56.2180001736
1020.0	0.000479	56.2650001049
1020.0	0.0004788	56.3120000362
1020.0	0.000478	56.3430001736
1020.0	0.0004778	56.3900001049
1020.0	0.000478	56.4370000362
1020.0	0.0004783	56.4680001736
1020.0	0.0004778	56.5150001049
1020.0	0.0004768	56.5620000362
1020.0	0.0004765	56.5930001736
1020.0	0.0004763	56.6400001049
1030.0	0.0004865	56.9210000038
1030.0	0.00049	56.9680001736
1030.0	0.0004925	57.0
1030.0	0.0004945	57.0460000038
1030.0	0.0004963	57.0780000687
1030.0	0.0004975	57.125
1030.0	0.0004988	57.1710000038
1030.0	0.0004993	57.2030000687
1030.0	0.000499	57.25
1030.0	0.000499	57.2960000038
1030.0	0.0004993	57.3280000687
1030.0	0.0005	57.375
1030.0	0.0005003	57.4060001373
1030.0	0.0005003	57.4530000687
1030.0	0.0005008	57.5
1030.0	0.0005005	57.5310001373
1030.0	0.0005003	57.5780000687
1030.0	0.0005	57.625
1030.0	0.0005003	57.6560001373
1030.0	0.0005	57.7030000687
1030.0	0.0004995	57.75
1030.0	0.0004995	57.7810001373
1030.0	0.0004993	57.8280000687
1030.0	0.0004993	57.859000206
1030.0	0.0005	57.9060001373
1030.0	0.0005003	57.9530000687
1030.0	0.0005005	57.984000206
1030.0	0.0005005	58.0310001373
1030.0	0.0005008	58.0780000687
1030.0	0.0005013	58.109000206
1030.0	0.0005015	58.1560001373
1030.0	0.000502	58.1870000362
1030.0	0.0005025	58.234000206
1030.0	0.0005025	58.2810001373
1030.0	0.0005028	58.3120000362
1030.0	0.0005025	58.359000206
1030.0	0.0005018	58.4060001373
1040.0	0.0005093	58.6870000362
1040.0	0.0005125	58.7180001736
1040.0	0.0005153	58.7650001049
1040.0	0.000517	58.8120000362
1040.0	0.0005183	58.8430001736
1040.0	0.00052	58.8900001049
1040.0	0.0005203	58.9210000038
1040.0	0.0005208	58.9680001736
1040.0	0.0005218	59.0150001049
1040.0	0.0005218	59.0460000038
1040.0	0.000522	59.0930001736
1040.0	0.0005228	59.1400001049
1040.0	0.000523	59.1710000038
1040.0	0.0005228	59.2180001736
1040.0	0.000523	59.2650001049
1040.0	0.0005238	59.2960000038
1040.0	0.0005238	59.3430001736
1040.0	0.0005238	59.3900001049
1040.0	0.0005238	59.4210000038
1040.0	0.0005233	59.4680001736
1040.0	0.0005238	59.5150001049
1040.0	0.0005238	59.5460000038
1040.0	0.0005238	59.5930001736
1040.0	0.0005238	59.625
1040.0	0.0005238	59.6710000038
1040.0	0.0005238	59.7180001736
1040.0	0.0005233	59.75
1040.0	0.0005238	59.7960000038
1040.0	0.0005238	59.8430001736
1040.0	0.0005233	59.875
1040.0	0.0005233	59.9210000038
1040.0	0.0005238	59.9530000687
1040.0	0.0005238	60.0
1040.0	0.0005238	60.0460000038
1040.0	0.0005238	60.0780000687
1040.0	0.000523	60.125
1040.0	0.0005233	60.1710000038
1050.0	0.0005313	60.4530000687
1050.0	0.0005345	60.484000206
1050.0	0.0005378	60.5310001373
1050.0	0.00054	60.5620000362
1050.0	0.000542	60.609000206
1050.0	0.0005433	60.6560001373
1050.0	0.0005433	60.6870000362
1050.0	0.0005438	60.734000206
1050.0	0.0005438	60.7810001373
1050.0	0.0005433	60.8120000362
1050.0	0.000544	60.859000206
1050.0	0.000545	60.9060001373
1050.0	0.0005445	60.9370000362
1050.0	0.000545	60.984000206
1050.0	0.0005453	61.0310001373
1050.0	0.0005455	61.0620000362
1050.0	0.0005458	61.109000206
1050.0	0.0005465	61.1560001373
1050.0	0.0005465	61.1870000362
1050.0	0.0005465	61.234000206
1050.0	0.0005468	61.2810001373
1050.0	0.0005468	61.3120000362
1050.0	0.0005465	61.359000206
1050.0	0.0005468	61.3900001049
1050.0	0.0005475	61.4370000362
1050.0	0.0005475	61.484000206
1050.0	0.0005475	61.5150001049
1050.0	0.0005468	61.5620000362
1050.0	0.0005463	61.609000206
1050.0	0.0005458	61.6560001373
1050.0	0.000545	61.6870000362
1050.0	0.000544	61.734000206
1050.0	0.000544	61.7650001049
1050.0	0.0005445	61.8120000362
1050.0	0.000545	61.859000206
1050.0	0.0005453	61.8900001049
1050.0	0.0005455	61.9370000362
1060.0	0.0005543	62.2180001736
1060.0	0.0005575	62.25
1060.0	0.0005593	62.2960000038
1060.0	0.0005615	62.3430001736
1060.0	0.0005625	62.375
1060.0	0.000563	62.4210000038
1060.0	0.000564	62.4680001736
1060.0	0.000565	62.5
1060.0	0.0005658	62.5460000038
1060.0	0.0005668	62.5780000687
1060.0	0.0005675	62.625
1060.0	0.0005675	62.6710000038
1060.0	0.0005668	62.7030000687
1060.0	0.000567	62.75
1060.0	0.0005678	62.7960000038
1060.0	0.0005688	62.8280000687
1060.0	0.0005693	62.875
1060.0	0.0005693	62.9210000038
1060.0	0.0005693	62.9530000687
1060.0	0.0005693	63.0
1060.0	0.0005688	63.0460000038
1060.0	0.0005683	63.0780000687
1060.0	0.0005678	63.125
1060.0	0.000567	63.1560001373
1060.0	0.0005668	63.2030000687
1060.0	0.000567	63.25
1060.0	0.0005668	63.2810001373
1060.0	0.000567	63.3280000687
1060.0	0.0005675	63.375
1060.0	0.0005668	63.4060001373
1060.0	0.0005665	63.4530000687
1060.0	0.0005663	63.5
1060.0	0.0005663	63.5310001373
1060.0	0.0005663	63.5780000687
1060.0	0.0005663	63.609000206
1060.0	0.0005663	63.6560001373
1060.0	0.0005663	63.7030000687
1070.0	0.0005745	63.984000206
1070.0	0.0005775	64.0150001049
1070.0	0.00058	64.0620000362
1070.0	0.0005815	64.0930001736
1070.0	0.0005828	64.1400001049
1070.0	0.0005838	64.1870000362
1070.0	0.000585	64.2180001736
1070.0	0.0005858	64.2650001049
1070.0	0.0005863	64.3120000362
1070.0	0.0005865	64.3430001736
1070.0	0.0005868	64.3900001049
1070.0	0.0005875	64.4370000362
1070.0	0.0005878	64.4680001736
1070.0	0.0005875	64.5150001049
1070.0	0.0005868	64.5620000362
1070.0	0.0005865	64.5930001736
1070.0	0.0005863	64.6400001049
1070.0	0.0005858	64.6710000038
1070.0	0.0005853	64.7180001736
1070.0	0.0005853	64.7650001049
1070.0	0.0005845	64.7960000038
1070.0	0.0005845	64.8430001736
1070.0	0.0005853	64.8900001049
1070.0	0.0005855	64.9210000038
1070.0	0.0005858	64.9680001736
1070.0	0.0005868	65.0
1070.0	0.0005868	65.0460000038
1070.0	0.0005868	65.0930001736
1070.0	0.0005865	65.1400001049
1070.0	0.0005863	65.1710000038
1070.0	0.0005865	65.2180001736
1070.0	0.000587	65.2650001049
1070.0	0.0005875	65.2960000038
1070.0	0.0005878	65.3430001736
1070.0	0.0005878	65.375
1070.0	0.0005878	65.4210000038
1070.0	0.0005875	65.4680001736
1080.0	0.0005933	65.75
1080.0	0.0005958	65.7810001373
1080.0	0.0005978	65.8280000687
1080.0	0.0005988	65.875
1080.0	0.0006013	65.9060001373
1080.0	0.0006025	65.9530000687
1080.0	0.0006025	66.0
1080.0	0.000602	66.0310001373
1080.0	0.0006025	66.0780000687
1080.0	0.0006028	66.109000206
1080.0	0.000603	66.1560001373
1080.0	0.0006033	66.2030000687
1080.0	0.000603	66.234000206
1080.0	0.0006033	66.2810001373
1080.0	0.000603	66.3280000687
1080.0	0.000603	66.359000206
1080.0	0.000603	66.4060001373
1080.0	0.0006033	66.4530000687
1080.0	0.0006038	66.484000206
1080.0	0.0006033	66.5310001373
1080.0	0.000604	66.5620000362
1080.0	0.0006045	66.609000206
1080.0	0.000604	66.6560001373
1080.0	0.0006038	66.6870000362
1080.0	0.000604	66.734000206
1080.0	0.000604	66.7810001373
1080.0	0.0006038	66.8120000362
1080.0	0.000604	66.859000206
1080.0	0.0006038	66.8900001049
1080.0	0.0006028	66.9370000362
1080.0	0.0006028	66.984000206
1080.0	0.000603	67.0150001049
1080.0	0.0006028	67.0620000362
1080.0	0.0006028	67.109000206
1080.0	0.0006025	67.1400001049
1080.0	0.0006025	67.1870000362
1080.0	0.000603	67.2180001736
1090.0	0.0006083	67.5
1090.0	0.0006103	67.5460000038
1090.0	0.0006115	67.5780000687
1090.0	0.0006115	67.625
1090.0	0.0006118	67.6710000038
1090.0	0.0006128	67.7030000687
1090.0	0.0006133	67.75
1090.0	0.0006143	67.7810001373
1090.0	0.0006153	67.8280000687
1090.0	0.0006155	67.875
1090.0	0.0006158	67.9060001373
1090.0	0.0006165	67.9530000687
1090.0	0.0006163	68.0
1090.0	0.0006165	68.0460000038
1090.0	0.0006168	68.0780000687
1090.0	0.0006163	68.125
1090.0	0.0006158	68.1560001373
1090.0	0.0006158	68.2030000687
1090.0	0.0006155	68.25
1090.0	0.0006163	68.2810001373
1090.0	0.0006168	68.3280000687
1090.0	0.000617	68.375
1090.0	0.0006168	68.4060001373
1090.0	0.0006175	68.4530000687
1090.0	0.000618	68.484000206
1090.0	0.0006178	68.5310001373
1090.0	0.0006183	68.5780000687
1090.0	0.0006188	68.609000206
1090.0	0.0006188	68.6560001373
1090.0	0.0006183	68.7030000687
1090.0	0.0006183	68.734000206
1090.0	0.0006188	68.7810001373
1090.0	0.0006183	68.8120000362
1090.0	0.0006183	68.859000206
1090.0	0.0006188	68.9060001373
1090.0	0.000618	68.9370000362
1090.0	0.0006175	68.984000206
1100.0	0.0006205	69.25
1100.0	0.0006218	69.2960000038
1100.0	0.000622	69.3430001736
1100.0	0.0006225	69.375
1100.0	0.000623	69.4210000038
1100.0	0.0006238	69.4680001736
1100.0	0.000624	69.5
1100.0	0.0006243	69.5460000038
1100.0	0.0006238	69.5930001736
1100.0	0.0006233	69.625
1100.0	0.0006233	69.6710000038
1100.0	0.0006233	69.7030000687
1100.0	0.000624	69.75
1100.0	0.0006245	69.7960000038
1100.0	0.0006253	69.8280000687
1100.0	0.0006255	69.875
1100.0	0.0006255	69.9210000038
1100.0	0.0006263	69.9530000687
1100.0	0.0006265	70.0
1100.0	0.0006263	70.0460000038
1100.0	0.0006263	70.0780000687
1100.0	0.0006263	70.125
1100.0	0.0006263	70.1560001373
1100.0	0.0006258	70.2030000687
1100.0	0.0006263	70.25
1100.0	0.0006263	70.2810001373
1100.0	0.000625	70.3280000687
1100.0	0.0006243	70.375
1100.0	0.0006238	70.4060001373
1100.0	0.0006238	70.4530000687
1100.0	0.0006233	70.484000206
1100.0	0.0006238	70.5310001373
1100.0	0.0006243	70.5780000687
1100.0	0.0006245	70.609000206
1100.0	0.0006245	70.6560001373
1100.0	0.0006245	70.7030000687
1100.0	0.0006253	70.734000206
1110.0	0.0006283	71.0150001049
1110.0	0.000629	71.0460000038
1110.0	0.0006295	71.0930001736
1110.0	0.0006303	71.125
1110.0	0.0006308	71.1710000038
1110.0	0.0006315	71.2180001736
1110.0	0.000632	71.25
1110.0	0.0006325	71.2960000038
1110.0	0.000632	71.3430001736
1110.0	0.000632	71.375
1110.0	0.0006315	71.4210000038
1110.0	0.0006315	71.4530000687
1110.0	0.0006318	71.5
1110.0	0.0006315	71.5460000038
1110.0	0.0006313	71.5780000687
1110.0	0.0006313	71.625
1110.0	0.0006313	71.6710000038
1110.0	0.0006308	71.7030000687
1110.0	0.0006305	71.75
1110.0	0.00063	71.7960000038
1110.0	0.0006293	71.8280000687
1110.0	0.000629	71.875
1110.0	0.000629	71.9060001373
1110.0	0.000629	71.9530000687
1110.0	0.0006293	72.0
1110.0	0.0006293	72.0310001373
1110.0	0.000629	72.0780000687
1110.0	0.0006293	72.125
1110.0	0.00063	72.1560001373
1110.0	0.0006295	72.2030000687
1110.0	0.0006293	72.234000206
1110.0	0.0006295	72.2810001373
1110.0	0.0006303	72.3280000687
1110.0	0.00063	72.359000206
1110.0	0.0006303	72.4060001373
1110.0	0.0006303	72.4530000687
1110.0	0.00063	72.484000206
1120.0	0.0006313	72.75
1120.0	0.0006315	72.7960000038
1120.0	0.0006315	72.8430001736
1120.0	0.000632	72.875
1120.0	0.0006328	72.9210000038
1120.0	0.0006333	72.9530000687
1120.0	0.0006345	73.0
1120.0	0.0006345	73.0460000038
1120.0	0.0006345	73.0780000687
1120.0	0.0006345	73.125
1120.0	0.000635	73.1710000038
1120.0	0.0006345	73.2030000687
1120.0	0.0006345	73.25
1120.0	0.0006345	73.2810001373
1120.0	0.000634	73.3280000687
1120.0	0.0006338	73.375
1120.0	0.0006338	73.4210000038
1120.0	0.000633	73.4530000687
1120.0	0.0006328	73.5
1120.0	0.000633	73.5310001373
1120.0	0.0006338	73.5780000687
1120.0	0.0006343	73.625
1120.0	0.000635	73.6560001373
1120.0	0.0006343	73.7030000687
1120.0	0.0006338	73.75
1120.0	0.0006338	73.7810001373
1120.0	0.0006338	73.8280000687
1120.0	0.0006328	73.875
1120.0	0.0006328	73.9060001373
1120.0	0.0006328	73.9530000687
1120.0	0.0006328	74.0
1120.0	0.0006328	74.0310001373
1120.0	0.0006328	74.0780000687
1120.0	0.0006328	74.125
1120.0	0.0006325	74.1560001373
1120.0	0.000632	74.2030000687
1130.0	0.000633	74.4680001736
1130.0	0.000633	74.5
1130.0	0.000633	74.5460000038
1130.0	0.000632	74.5930001736
1130.0	0.0006318	74.625
1130.0	0.0006318	74.6710000038
1130.0	0.0006318	74.7180001736
1130.0	0.0006313	74.75
1130.0	0.0006313	74.7960000038
1130.0	0.0006313	74.8430001736
1130.0	0.0006315	74.875
1130.0	0.0006325	74.9210000038
1130.0	0.0006328	74.9530000687
1130.0	0.0006328	75.0
1130.0	0.000633	75.0460000038
1130.0	0.0006325	75.0780000687
1130.0	0.0006318	75.125
1130.0	0.0006318	75.1710000038
1130.0	0.000632	75.2030000687
1130.0	0.0006325	75.25
1130.0	0.0006328	75.2810001373
1130.0	0.000633	75.3280000687
1130.0	0.000633	75.375
1130.0	0.000633	75.4060001373
1130.0	0.0006333	75.4530000687
1130.0	0.000634	75.5
1130.0	0.000635	75.5460000038
1130.0	0.0006343	75.5780000687
1130.0	0.0006338	75.625
1130.0	0.0006333	75.6560001373
1130.0	0.0006338	75.7030000687
1130.0	0.0006338	75.75
1130.0	0.0006333	75.7810001373
1130.0	0.0006333	75.8280000687
1130.0	0.0006325	75.875
1130.0	0.0006318	75.9060001373
1130.0	0.0006318	75.9530000687
1140.0	0.0006303	76.2180001736
1140.0	0.00063	76.2650001049
1140.0	0.0006303	76.2960000038
1140.0	0.00063	76.3430001736
1140.0	0.0006305	76.3900001049
1140.0	0.00063	76.4210000038
1140.0	0.0006293	76.4680001736
1140.0	0.0006293	76.5150001049
1140.0	0.0006295	76.5460000038
1140.0	0.0006295	76.5930001736
1140.0	0.0006295	76.625
1140.0	0.0006293	76.6710000038
1140.0	0.0006295	76.7180001736
1140.0	0.0006295	76.75
1140.0	0.0006295	76.7960000038
1140.0	0.0006295	76.8430001736
1140.0	0.0006293	76.875
1140.0	0.0006295	76.9210000038
1140.0	0.00063	76.9530000687
1140.0	0.0006303	77.0
1140.0	0.0006308	77.0460000038
1140.0	0.0006315	77.0780000687
1140.0	0.0006313	77.125
1140.0	0.0006308	77.1710000038
1140.0	0.0006308	77.2030000687
1140.0	0.0006313	77.25
1140.0	0.0006313	77.2810001373
1140.0	0.0006318	77.3280000687
1140.0	0.0006315	77.375
1140.0	0.0006313	77.4060001373
1140.0	0.0006313	77.4530000687
1140.0	0.0006308	77.5
1140.0	0.0006305	77.5310001373
1140.0	0.0006303	77.5780000687
1140.0	0.0006305	77.625
1140.0	0.0006305	77.6560001373
1140.0	0.0006305	77.7030000687
1150.0	0.0006303	77.9680001736
1150.0	0.0006295	78.0
1150.0	0.00063	78.0460000038
1150.0	0.0006293	78.0930001736
1150.0	0.0006283	78.125
1150.0	0.0006278	78.1710000038
1150.0	0.0006278	78.2180001736
1150.0	0.0006278	78.25
1150.0	0.0006275	78.2960000038
1150.0	0.0006278	78.3280000687
1150.0	0.0006283	78.375
1150.0	0.0006288	78.4210000038
1150.0	0.000629	78.4530000687
1150.0	0.000629	78.5
1150.0	0.000629	78.5460000038
1150.0	0.0006288	78.5780000687
1150.0	0.000628	78.625
1150.0	0.0006275	78.6710000038
1150.0	0.0006275	78.7030000687
1150.0	0.000627	78.75
1150.0	0.0006268	78.7810001373
1150.0	0.0006268	78.8280000687
1150.0	0.0006268	78.875
1150.0	0.0006268	78.9060001373
1150.0	0.0006268	78.9530000687
1150.0	0.000627	79.0
1150.0	0.000627	79.0310001373
1150.0	0.000627	79.0780000687
1150.0	0.000627	79.109000206
1150.0	0.0006275	79.1560001373
1150.0	0.0006275	79.2030000687
1150.0	0.0006278	79.234000206
1150.0	0.0006283	79.2810001373
1150.0	0.000628	79.3280000687
1150.0	0.000628	79.359000206
1150.0	0.0006283	79.4060001373
1150.0	0.000628	79.4530000687
1160.0	0.000627	79.7180001736
1160.0	0.0006268	79.75
1160.0	0.0006263	79.7960000038
1160.0	0.0006258	79.8280000687
1160.0	0.0006265	79.875
1160.0	0.0006263	79.9210000038
1160.0	0.0006258	79.9530000687
1160.0	0.0006258	80.0
1160.0	0.0006258	80.0460000038
1160.0	0.0006255	80.0780000687
1160.0	0.0006255	80.125
1160.0	0.0006258	80.1560001373
1160.0	0.0006253	80.2030000687
1160.0	0.0006253	80.25
1160.0	0.000625	80.2810001373
1160.0	0.0006243	80.3280000687
1160.0	0.0006243	80.375
1160.0	0.000625	80.4060001373
1160.0	0.0006255	80.4530000687
1160.0	0.0006263	80.5
1160.0	0.0006268	80.5310001373
1160.0	0.000627	80.5780000687
1160.0	0.0006268	80.625
1160.0	0.0006268	80.6560001373
1160.0	0.0006265	80.7030000687
1160.0	0.0006258	80.75
1160.0	0.0006255	80.7810001373
1160.0	0.0006243	80.8280000687
1160.0	0.0006233	80.875
1160.0	0.000623	80.9060001373
1160.0	0.000623	80.9530000687
1160.0	0.0006238	81.0
1160.0	0.000625	81.0310001373
1160.0	0.0006253	81.0780000687
1160.0	0.0006258	81.109000206
1160.0	0.000627	81.1560001373
1160.0	0.000627	81.2030000687
1170.0	0.0006253	81.4680001736
1170.0	0.000625	81.5150001049
1170.0	0.0006245	81.5620000362
1170.0	0.000625	81.5930001736
1170.0	0.000625	81.6400001049
1170.0	0.0006243	81.6710000038
1170.0	0.0006233	81.7180001736
1170.0	0.000623	81.7650001049
1170.0	0.0006228	81.7960000038
1170.0	0.000623	81.8430001736
1170.0	0.000623	81.8900001049
1170.0	0.0006225	81.9210000038
1170.0	0.0006225	81.9680001736
1170.0	0.000623	82.0
1170.0	0.0006228	82.0460000038
1170.0	0.0006225	82.0930001736
1170.0	0.0006233	82.125
1170.0	0.0006243	82.1710000038
1170.0	0.0006245	82.2180001736
1170.0	0.0006253	82.25
1170.0	0.0006258	82.2960000038
1170.0	0.0006258	82.3430001736
1170.0	0.0006255	82.375
1170.0	0.0006253	82.4210000038
1170.0	0.0006245	82.4530000687
1170.0	0.0006243	82.5
1170.0	0.0006238	82.5460000038
1170.0	0.000623	82.5780000687
1170.0	0.0006228	82.625
1170.0	0.0006228	82.6710000038
1170.0	0.0006228	82.7030000687
1170.0	0.000623	82.75
1170.0	0.0006238	82.7960000038
1170.0	0.0006238	82.8280000687
1170.0	0.0006238	82.875
1170.0	0.000624	82.9210000038
1170.0	0.0006243	82.9530000687
1180.0	0.000623	83.234000206
1180.0	0.0006233	83.2650001049
1180.0	0.0006238	83.3120000362
1180.0	0.000624	83.3430001736
1180.0	0.0006243	83.3900001049
1180.0	0.0006243	83.4370000362
1180.0	0.0006243	83.4680001736
1180.0	0.000625	83.5150001049
1180.0	0.000625	83.5620000362
1180.0	0.0006245	83.5930001736
1180.0	0.0006245	83.6400001049
1180.0	0.0006243	83.6710000038
1180.0	0.0006243	83.7180001736
1180.0	0.0006245	83.7650001049
1180.0	0.000625	83.7960000038
1180.0	0.000625	83.8430001736
1180.0	0.0006255	83.8900001049
1180.0	0.0006255	83.9210000038
1180.0	0.0006253	83.9680001736
1180.0	0.0006245	84.0150001049
1180.0	0.000625	84.0460000038
1180.0	0.000625	84.0930001736
1180.0	0.0006253	84.125
1180.0	0.0006255	84.1710000038
1180.0	0.0006255	84.2180001736
1180.0	0.0006253	84.2650001049
1180.0	0.0006253	84.2960000038
1180.0	0.0006245	84.3430001736
1180.0	0.000625	84.375
1180.0	0.0006253	84.4210000038
1180.0	0.0006253	84.4680001736
1180.0	0.0006253	84.5
1180.0	0.0006245	84.5460000038
1180.0	0.000624	84.5930001736
1180.0	0.000624	84.625
1180.0	0.000625	84.6710000038
1180.0	0.0006253	84.7030000687
1190.0	0.0006268	84.984000206
1190.0	0.000627	85.0150001049
1190.0	0.000627	85.0620000362
1190.0	0.000628	85.109000206
1190.0	0.0006288	85.1400001049
1190.0	0.0006288	85.1870000362
1190.0	0.0006293	85.234000206
1190.0	0.0006303	85.2650001049
1190.0	0.0006313	85.3120000362
1190.0	0.0006308	85.3430001736
1190.0	0.0006308	85.3900001049
1190.0	0.0006305	85.4370000362
1190.0	0.0006293	85.4680001736
1190.0	0.000629	85.5150001049
1190.0	0.0006288	85.5620000362
1190.0	0.0006283	85.5930001736
1190.0	0.0006288	85.6400001049
1190.0	0.000629	85.6710000038
1190.0	0.000629	85.7180001736
1190.0	0.000629	85.7650001049
1190.0	0.0006293	85.7960000038
1190.0	0.000629	85.8430001736
1190.0	0.0006295	85.8900001049
1190.0	0.0006303	85.9210000038
1190.0	0.0006303	85.9680001736
1190.0	0.00063	86.0150001049
1190.0	0.0006293	86.0460000038
1190.0	0.0006288	86.0930001736
1190.0	0.000628	86.1400001049
1190.0	0.0006288	86.1710000038
1190.0	0.000629	86.2180001736
1190.0	0.000629	86.2650001049
1190.0	0.0006293	86.2960000038
1190.0	0.00063	86.3430001736
1190.0	0.0006295	86.375
1190.0	0.0006293	86.4210000038
1190.0	0.0006295	86.4680001736
1200.0	0.0006293	86.734000206
1200.0	0.0006305	86.7810001373
1200.0	0.0006313	86.8120000362
1200.0	0.0006318	86.859000206
1200.0	0.0006325	86.9060001373
1200.0	0.000633	86.9370000362
1200.0	0.0006333	86.984000206
1200.0	0.0006338	87.0150001049
1200.0	0.0006343	87.0620000362
1200.0	0.000635	87.109000206
1200.0	0.0006363	87.1400001049
1200.0	0.0006368	87.1870000362
1200.0	0.000637	87.234000206
1200.0	0.0006368	87.2650001049
1200.0	0.0006368	87.3120000362
1200.0	0.0006365	87.359000206
1200.0	0.0006363	87.3900001049
1200.0	0.0006365	87.4370000362
1200.0	0.0006363	87.4680001736
1200.0	0.0006363	87.5150001049
1200.0	0.0006368	87.5620000362
1200.0	0.0006368	87.609000206
1200.0	0.0006368	87.6400001049
1200.0	0.0006368	87.6870000362
1200.0	0.000637	87.7180001736
1200.0	0.0006368	87.7650001049
1200.0	0.0006365	87.8120000362
1200.0	0.0006363	87.8430001736
1200.0	0.0006363	87.8900001049
1200.0	0.0006355	87.9370000362
1200.0	0.0006355	87.9680001736
1200.0	0.0006358	88.0150001049
1200.0	0.0006363	88.0460000038
1200.0	0.0006363	88.0930001736
1200.0	0.0006368	88.1400001049
1200.0	0.0006368	88.1710000038
1200.0	0.0006375	88.2180001736
1210.0	0.0006418	88.484000206
1210.0	0.000643	88.5310001373
1210.0	0.0006438	88.5780000687
1210.0	0.000644	88.609000206
1210.0	0.0006448	88.6560001373
1210.0	0.0006453	88.6870000362
1210.0	0.000645	88.734000206
1210.0	0.000645	88.7810001373
1210.0	0.0006448	88.8120000362
1210.0	0.0006443	88.859000206
1210.0	0.0006443	88.9060001373
1210.0	0.000645	88.9370000362
1210.0	0.0006455	88.984000206
1210.0	0.0006463	89.0150001049
1210.0	0.0006463	89.0620000362
1210.0	0.0006463	89.109000206
1210.0	0.0006465	89.1400001049
1210.0	0.0006473	89.1870000362
1210.0	0.0006475	89.234000206
1210.0	0.0006475	89.2650001049
1210.0	0.0006475	89.3120000362
1210.0	0.0006473	89.3430001736
1210.0	0.0006465	89.3900001049
1210.0	0.0006465	89.4370000362
1210.0	0.0006465	89.4680001736
1210.0	0.000646	89.5150001049
1210.0	0.000645	89.5620000362
1210.0	0.000645	89.5930001736
1210.0	0.0006455	89.6400001049
1210.0	0.0006455	89.6870000362
1210.0	0.0006455	89.7180001736
1210.0	0.0006453	89.7650001049
1210.0	0.0006453	89.8120000362
1210.0	0.0006453	89.8430001736
1210.0	0.000645	89.8900001049
1210.0	0.0006448	89.9370000362
1210.0	0.000645	89.9680001736
1220.0	0.0006498	90.234000206
1220.0	0.0006515	90.2810001373
1220.0	0.0006535	90.3280000687
1220.0	0.000654	90.359000206
1220.0	0.0006548	90.4060001373
1220.0	0.000656	90.4370000362
1220.0	0.0006565	90.484000206
1220.0	0.0006568	90.5310001373
1220.0	0.0006573	90.5620000362
1220.0	0.0006578	90.609000206
1220.0	0.0006573	90.6560001373
1220.0	0.0006573	90.6870000362
1220.0	0.0006573	90.734000206
1220.0	0.0006575	90.7650001049
1220.0	0.0006573	90.8120000362
1220.0	0.0006568	90.859000206
1220.0	0.0006573	90.8900001049
1220.0	0.0006573	90.9370000362
1220.0	0.0006578	90.984000206
1220.0	0.0006585	91.0150001049
1220.0	0.000658	91.0620000362
1220.0	0.0006585	91.0930001736
1220.0	0.000658	91.1400001049
1220.0	0.0006578	91.1870000362
1220.0	0.0006575	91.2180001736
1220.0	0.000658	91.2650001049
1220.0	0.0006585	91.3120000362
1220.0	0.0006588	91.3430001736
1220.0	0.0006588	91.3900001049
1220.0	0.0006585	91.4370000362
1220.0	0.0006575	91.4680001736
1220.0	0.0006568	91.5150001049
1220.0	0.000656	91.5620000362
1220.0	0.000656	91.5930001736
1220.0	0.0006565	91.6400001049
1220.0	0.0006568	91.6870000362
1220.0	0.0006573	91.7180001736
1230.0	0.0006623	91.984000206
1230.0	0.0006635	92.0310001373
1230.0	0.000664	92.0780000687
1230.0	0.0006655	92.109000206
1230.0	0.0006673	92.1560001373
1230.0	0.0006675	92.1870000362
1230.0	0.0006685	92.234000206
1230.0	0.0006685	92.2810001373
1230.0	0.0006688	92.3280000687
1230.0	0.0006693	92.359000206
1230.0	0.0006688	92.4060001373
1230.0	0.000669	92.4530000687
1230.0	0.0006685	92.484000206
1230.0	0.000668	92.5310001373
1230.0	0.0006678	92.5780000687
1230.0	0.0006673	92.609000206
1230.0	0.0006673	92.6560001373
1230.0	0.0006678	92.6870000362
1230.0	0.0006688	92.734000206
1230.0	0.000669	92.7810001373
1230.0	0.0006698	92.8120000362
1230.0	0.000671	92.859000206
1230.0	0.0006718	92.9060001373
1230.0	0.0006715	92.9370000362
1230.0	0.0006715	92.984000206
1230.0	0.0006718	93.0310001373
1230.0	0.0006715	93.0620000362
1230.0	0.0006713	93.109000206
1230.0	0.000671	93.1400001049
1230.0	0.0006705	93.1870000362
1230.0	0.0006705	93.234000206
1230.0	0.0006703	93.2810001373
1230.0	0.0006698	93.3120000362
1230.0	0.000669	93.359000206
1230.0	0.000669	93.3900001049
1230.0	0.0006685	93.4370000362
1230.0	0.000668	93.484000206
1240.0	0.0006725	93.75
1240.0	0.0006748	93.7810001373
1240.0	0.0006765	93.8280000687
1240.0	0.0006778	93.875
1240.0	0.0006785	93.9060001373
1240.0	0.000679	93.9530000687
1240.0	0.0006798	94.0
1240.0	0.0006803	94.0310001373
1240.0	0.0006803	94.0780000687
1240.0	0.0006805	94.109000206
1240.0	0.000681	94.1560001373
1240.0	0.0006813	94.2030000687
1240.0	0.0006813	94.25
1240.0	0.0006803	94.2810001373
1240.0	0.0006798	94.3280000687
1240.0	0.0006798	94.359000206
1240.0	0.0006803	94.4060001373
1240.0	0.0006805	94.4530000687
1240.0	0.000681	94.484000206
1240.0	0.0006815	94.5310001373
1240.0	0.0006818	94.5780000687
1240.0	0.0006818	94.625
1240.0	0.0006815	94.6560001373
1240.0	0.0006813	94.7030000687
1240.0	0.0006818	94.734000206
1240.0	0.0006815	94.7810001373
1240.0	0.0006813	94.8280000687
1240.0	0.0006813	94.859000206
1240.0	0.0006818	94.9060001373
1240.0	0.0006823	94.9530000687
1240.0	0.0006825	94.984000206
1240.0	0.0006825	95.0310001373
1240.0	0.0006828	95.0620000362
1240.0	0.0006828	95.109000206
1240.0	0.0006835	95.1560001373
1240.0	0.0006838	95.1870000362
1240.0	0.000683	95.234000206
1250.0	0.0006848	95.5
1250.0	0.000686	95.5460000038
1250.0	0.0006873	95.5780000687
1250.0	0.0006885	95.625
1250.0	0.00069	95.6710000038
1250.0	0.000691	95.7030000687
1250.0	0.0006913	95.75
1250.0	0.000691	95.7810001373
1250.0	0.0006905	95.8280000687
1250.0	0.000691	95.875
1250.0	0.0006915	95.9060001373
1250.0	0.000691	95.9530000687
1250.0	0.00069	96.0
1250.0	0.0006898	96.0310001373
1250.0	0.0006898	96.0780000687
1250.0	0.000691	96.109000206
1250.0	0.0006918	96.1560001373
1250.0	0.0006918	96.2030000687
1250.0	0.0006925	96.234000206
1250.0	0.0006928	96.2810001373
1250.0	0.0006928	96.3280000687
1250.0	0.0006928	96.359000206
1250.0	0.000693	96.4060001373
1250.0	0.0006935	96.4530000687
1250.0	0.000693	96.484000206
1250.0	0.0006938	96.5310001373
1250.0	0.000694	96.5780000687
1250.0	0.0006935	96.609000206
1250.0	0.0006928	96.6560001373
1250.0	0.0006918	96.7030000687
1250.0	0.0006915	96.734000206
1250.0	0.0006918	96.7810001373
1250.0	0.0006923	96.8120000362
1250.0	0.0006925	96.859000206
1250.0	0.0006925	96.9060001373
1250.0	0.0006928	96.9370000362
1250.0	0.0006923	96.984000206
1260.0	0.000695	97.25
1260.0	0.000696	97.2960000038
1260.0	0.0006968	97.3280000687
1260.0	0.0006978	97.375
1260.0	0.0006988	97.4210000038
1260.0	0.0006993	97.4530000687
1260.0	0.0007	97.5
1260.0	0.0007003	97.5310001373
1260.0	0.0007	97.5780000687
1260.0	0.0007	97.625
1260.0	0.0007003	97.6560001373
1260.0	0.0007	97.7030000687
1260.0	0.0007003	97.75
1260.0	0.000701	97.7810001373
1260.0	0.0007015	97.8280000687
1260.0	0.0007015	97.859000206
1260.0	0.0007018	97.9060001373
1260.0	0.0007028	97.9530000687
1260.0	0.000703	97.984000206
1260.0	0.0007035	98.0310001373
1260.0	0.0007038	98.0780000687
1260.0	0.0007035	98.109000206
1260.0	0.000703	98.1560001373
1260.0	0.0007035	98.1870000362
1260.0	0.000703	98.234000206
1260.0	0.0007025	98.2810001373
1260.0	0.0007028	98.3120000362
1260.0	0.0007028	98.359000206
1260.0	0.0007018	98.4060001373
1260.0	0.0007018	98.4530000687
1260.0	0.0007018	98.484000206
1260.0	0.0007015	98.5310001373
1260.0	0.0007015	98.5620000362
1260.0	0.0007018	98.609000206
1260.0	0.0007023	98.6560001373
1260.0	0.0007023	98.6870000362
1260.0	0.0007023	98.734000206
1270.0	0.0007048	99.0
1270.0	0.0007065	99.0460000038
1270.0	0.0007078	99.0780000687
1270.0	0.0007078	99.125
1270.0	0.0007078	99.1710000038
1270.0	0.0007085	99.2030000687
1270.0	0.0007085	99.25
1270.0	0.0007093	99.2960000038
1270.0	0.00071	99.3280000687
1270.0	0.0007103	99.375
1270.0	0.0007105	99.4210000038
1270.0	0.000711	99.4530000687
1270.0	0.0007103	99.5
1270.0	0.0007105	99.5460000038
1270.0	0.000711	99.5780000687
1270.0	0.000711	99.625
1270.0	0.000711	99.6710000038
1270.0	0.000711	99.7030000687
1270.0	0.0007103	99.75
1270.0	0.00071	99.7810001373
1270.0	0.0007098	99.8280000687
1270.0	0.0007093	99.875
1270.0	0.0007093	99.9060001373
1270.0	0.0007098	99.9530000687
1270.0	0.00071	100.0
1270.0	0.0007098	100.031000137
1270.0	0.00071	100.078000069
1270.0	0.00071	100.109000206
1270.0	0.00071	100.156000137
1270.0	0.0007098	100.203000069
1270.0	0.0007093	100.234000206
1270.0	0.0007088	100.281000137
1270.0	0.0007085	100.328000069
1270.0	0.0007085	100.359000206
1270.0	0.000708	100.406000137
1270.0	0.0007085	100.453000069
1280.0	0.000711	100.718000174
1280.0	0.0007105	100.75
1280.0	0.0007105	100.796000004
1280.0	0.0007115	100.828000069
1280.0	0.0007115	100.875
1280.0	0.0007123	100.921000004
1280.0	0.0007128	100.953000069
1280.0	0.000713	101.0
1280.0	0.0007135	101.046000004
1280.0	0.0007135	101.078000069
1280.0	0.000713	101.125
1280.0	0.0007128	101.156000137
1280.0	0.0007128	101.203000069
1280.0	0.0007128	101.25
1280.0	0.0007128	101.281000137
1280.0	0.000713	101.328000069
1280.0	0.0007128	101.375
1280.0	0.0007125	101.406000137
1280.0	0.0007115	101.453000069
1280.0	0.0007115	101.5
1280.0	0.0007113	101.531000137
1280.0	0.000711	101.578000069
1280.0	0.0007113	101.609000206
1280.0	0.0007113	101.656000137
1280.0	0.0007113	101.703000069
1280.0	0.0007113	101.734000206
1280.0	0.0007113	101.781000137
1280.0	0.0007118	101.828000069
1280.0	0.0007118	101.859000206
1280.0	0.0007123	101.906000137
1280.0	0.0007118	101.937000036
1280.0	0.0007115	101.984000206
1280.0	0.000711	102.031000137
1280.0	0.0007105	102.062000036
1280.0	0.000711	102.109000206
1280.0	0.0007113	102.156000137
1280.0	0.0007113	102.187000036
1290.0	0.0007123	102.453000069
1290.0	0.0007123	102.5
1290.0	0.0007118	102.546000004
1290.0	0.0007123	102.578000069
1290.0	0.0007125	102.625
1290.0	0.0007123	102.671000004
1290.0	0.0007125	102.703000069
1290.0	0.0007125	102.75
1290.0	0.0007123	102.796000004
1290.0	0.0007118	102.828000069
1290.0	0.0007123	102.875
1290.0	0.0007123	102.906000137
1290.0	0.0007115	102.953000069
1290.0	0.0007123	103.0
1290.0	0.0007125	103.031000137
1290.0	0.0007128	103.078000069
1290.0	0.000713	103.125
1290.0	0.0007135	103.156000137
1290.0	0.0007128	103.203000069
1290.0	0.0007128	103.25
1290.0	0.0007125	103.281000137
1290.0	0.0007123	103.328000069
1290.0	0.0007125	103.375
1290.0	0.0007128	103.406000137
1290.0	0.0007125	103.453000069
1290.0	0.0007118	103.5
1290.0	0.0007118	103.531000137
1290.0	0.0007115	103.578000069
1290.0	0.0007115	103.609000206
1290.0	0.0007118	103.656000137
1290.0	0.0007113	103.703000069
1290.0	0.000711	103.734000206
1290.0	0.0007115	103.781000137
1290.0	0.0007115	103.828000069
1290.0	0.0007115	103.859000206
1290.0	0.0007118	103.906000137
1290.0	0.0007123	103.937000036
1300.0	0.00071	104.218000174
1300.0	0.000709	104.25
1300.0	0.0007075	104.296000004
1300.0	0.0007068	104.328000069
1300.0	0.0007068	104.375
1300.0	0.0007065	104.421000004
1300.0	0.0007063	104.453000069
1300.0	0.000706	104.5
1300.0	0.0007063	104.546000004
1300.0	0.0007065	104.578000069
1300.0	0.0007068	104.625
1300.0	0.0007068	104.656000137
1300.0	0.0007065	104.703000069
1300.0	0.000706	104.75
1300.0	0.000706	104.781000137
1300.0	0.0007053	104.828000069
1300.0	0.0007055	104.875
1300.0	0.000706	104.906000137
1300.0	0.000706	104.953000069
1300.0	0.000706	104.984000206
1300.0	0.000706	105.031000137
1300.0	0.0007063	105.078000069
1300.0	0.0007055	105.125
1300.0	0.000705	105.156000137
1300.0	0.0007043	105.203000069
1300.0	0.000704	105.25
1300.0	0.0007043	105.281000137
1300.0	0.0007038	105.328000069
1300.0	0.0007038	105.375
1300.0	0.000704	105.406000137
1300.0	0.000704	105.453000069
1300.0	0.000704	105.5
1300.0	0.000705	105.531000137
1300.0	0.0007053	105.578000069
1300.0	0.0007055	105.609000206
1300.0	0.000706	105.656000137
1300.0	0.000706	105.703000069
1310.0	0.0006988	105.968000174
1310.0	0.0006965	106.015000105
1310.0	0.0006953	106.046000004
1310.0	0.0006943	106.093000174
1310.0	0.000694	106.140000105
1310.0	0.0006935	106.171000004
1310.0	0.0006925	106.218000174
1310.0	0.0006918	106.265000105
1310.0	0.0006915	106.296000004
1310.0	0.0006915	106.343000174
1310.0	0.0006915	106.390000105
1310.0	0.0006915	106.421000004
1310.0	0.0006918	106.468000174
1310.0	0.0006925	106.5
1310.0	0.0006928	106.546000004
1310.0	0.0006928	106.593000174
1310.0	0.000693	106.625
1310.0	0.0006935	106.671000004
1310.0	0.000693	106.718000174
1310.0	0.000693	106.75
1310.0	0.000693	106.796000004
1310.0	0.0006928	106.828000069
1310.0	0.0006928	106.875
1310.0	0.0006938	106.921000004
1310.0	0.0006935	106.953000069
1310.0	0.0006928	107.0
1310.0	0.0006925	107.046000004
1310.0	0.0006923	107.093000174
1310.0	0.0006918	107.125
1310.0	0.0006925	107.171000004
1310.0	0.0006923	107.203000069
1310.0	0.0006923	107.25
1310.0	0.0006928	107.296000004
1310.0	0.0006928	107.328000069
1310.0	0.0006923	107.375
1310.0	0.0006918	107.421000004
1320.0	0.0006878	107.687000036
1320.0	0.0006848	107.734000206
1320.0	0.0006813	107.765000105
1320.0	0.0006785	107.812000036
1320.0	0.0006765	107.843000174
1320.0	0.0006755	107.890000105
1320.0	0.0006748	107.937000036
1320.0	0.0006738	107.968000174
1320.0	0.0006728	108.015000105
1320.0	0.0006718	108.062000036
1320.0	0.0006705	108.093000174
1320.0	0.00067	108.140000105
1320.0	0.0006703	108.171000004
1320.0	0.0006698	108.218000174
1320.0	0.0006688	108.265000105
1320.0	0.0006685	108.296000004
1320.0	0.0006685	108.343000174
1320.0	0.0006685	108.390000105
1320.0	0.0006693	108.421000004
1320.0	0.0006703	108.468000174
1320.0	0.0006705	108.5
1320.0	0.0006705	108.546000004
1320.0	0.0006703	108.593000174
1320.0	0.00067	108.625
1320.0	0.0006705	108.671000004
1320.0	0.000671	108.718000174
1320.0	0.0006703	108.75
1320.0	0.00067	108.796000004
1320.0	0.0006698	108.828000069
1320.0	0.0006693	108.875
1320.0	0.0006693	108.921000004
1320.0	0.0006688	108.968000174
1320.0	0.0006675	109.0
1320.0	0.0006675	109.046000004
1320.0	0.0006675	109.093000174
1320.0	0.0006678	109.125
1320.0	0.0006685	109.171000004
1330.0	0.0006585	109.437000036
1330.0	0.0006538	109.484000206
1330.0	0.000651	109.515000105
1330.0	0.0006478	109.562000036
1330.0	0.0006455	109.609000206
1330.0	0.000644	109.640000105
1330.0	0.0006425	109.687000036
1330.0	0.0006418	109.734000206
1330.0	0.0006405	109.765000105
1330.0	0.0006395	109.812000036
1330.0	0.0006388	109.843000174
1330.0	0.0006383	109.890000105
1330.0	0.0006378	109.937000036
1330.0	0.0006375	109.968000174
1330.0	0.000638	110.015000105
1330.0	0.0006383	110.062000036
1330.0	0.0006388	110.093000174
1330.0	0.000639	110.140000105
1330.0	0.0006398	110.171000004
1330.0	0.00064	110.218000174
1330.0	0.0006403	110.265000105
1330.0	0.0006403	110.296000004
1330.0	0.0006403	110.343000174
1330.0	0.0006398	110.390000105
1330.0	0.0006398	110.421000004
1330.0	0.0006395	110.468000174
1330.0	0.0006395	110.515000105
1330.0	0.0006395	110.546000004
1330.0	0.0006393	110.593000174
1330.0	0.0006383	110.640000105
1330.0	0.000638	110.671000004
1330.0	0.0006383	110.718000174
1330.0	0.0006383	110.765000105
1330.0	0.0006383	110.796000004
1330.0	0.0006388	110.843000174
1330.0	0.0006383	110.890000105
1340.0	0.0006245	111.156000137
1340.0	0.000618	111.203000069
1340.0	0.0006133	111.234000206
1340.0	0.00061	111.281000137
1340.0	0.0006075	111.328000069
1340.0	0.0006058	111.359000206
1340.0	0.0006043	111.406000137
1340.0	0.000603	111.437000036
1340.0	0.0006025	111.484000206
1340.0	0.0006025	111.531000137
1340.0	0.0006025	111.562000036
1340.0	0.0006028	111.609000206
1340.0	0.0006028	111.656000137
1340.0	0.0006025	111.687000036
1340.0	0.000602	111.734000206
1340.0	0.000602	111.781000137
1340.0	0.0006018	111.812000036
1340.0	0.0006013	111.859000206
1340.0	0.0006013	111.890000105
1340.0	0.0006018	111.937000036
1340.0	0.0006015	111.984000206
1340.0	0.0006013	112.031000137
1340.0	0.0006013	112.062000036
1340.0	0.000602	112.109000206
1340.0	0.000602	112.140000105
1340.0	0.0006025	112.187000036
1340.0	0.0006025	112.234000206
1340.0	0.0006025	112.265000105
1340.0	0.0006025	112.312000036
1340.0	0.0006018	112.343000174
1340.0	0.0006013	112.390000105
1340.0	0.0006013	112.437000036
1340.0	0.0006003	112.468000174
1340.0	0.0006	112.515000105
1340.0	0.0006003	112.562000036
1340.0	0.0006008	112.593000174
1340.0	0.0006008	112.640000105
1350.0	0.0005855	112.906000137
1350.0	0.0005803	112.953000069
1350.0	0.0005758	113.0
1350.0	0.0005728	113.031000137
1350.0	0.0005708	113.078000069
1350.0	0.0005683	113.125
1350.0	0.0005658	113.156000137
1350.0	0.000564	113.203000069
1350.0	0.0005628	113.25
1350.0	0.000562	113.281000137
1350.0	0.0005613	113.328000069
1350.0	0.0005608	113.359000206
1350.0	0.0005613	113.406000137
1350.0	0.0005613	113.453000069
1350.0	0.0005613	113.484000206
1350.0	0.0005613	113.531000137
1350.0	0.0005618	113.578000069
1350.0	0.0005618	113.609000206
1350.0	0.0005625	113.656000137
1350.0	0.0005625	113.703000069
1350.0	0.0005615	113.734000206
1350.0	0.0005613	113.781000137
1350.0	0.0005605	113.828000069
1350.0	0.0005603	113.859000206
1350.0	0.00056	113.906000137
1350.0	0.00056	113.953000069
1350.0	0.0005605	113.984000206
1350.0	0.0005608	114.031000137
1350.0	0.0005615	114.078000069
1350.0	0.0005615	114.109000206
1350.0	0.0005615	114.156000137
1350.0	0.0005615	114.203000069
1350.0	0.0005615	114.234000206
1350.0	0.0005615	114.281000137
1350.0	0.0005615	114.312000036
1350.0	0.0005613	114.359000206
1350.0	0.0005603	114.406000137
1360.0	0.0005443	114.671000004
1360.0	0.000539	114.718000174
1360.0	0.0005345	114.75
1360.0	0.0005308	114.796000004
1360.0	0.0005278	114.843000174
1360.0	0.0005263	114.875
1360.0	0.0005245	114.921000004
1360.0	0.0005233	114.953000069
1360.0	0.000522	115.0
1360.0	0.000522	115.046000004
1360.0	0.0005218	115.078000069
1360.0	0.0005213	115.125
1360.0	0.0005213	115.171000004
1360.0	0.0005215	115.203000069
1360.0	0.0005215	115.25
1360.0	0.0005218	115.281000137
1360.0	0.0005218	115.328000069
1360.0	0.0005213	115.375
1360.0	0.0005205	115.406000137
1360.0	0.0005203	115.453000069
1360.0	0.00052	115.5
1360.0	0.0005195	115.531000137
1360.0	0.0005193	115.578000069
1360.0	0.000519	115.625
1360.0	0.0005188	115.656000137
1360.0	0.0005188	115.703000069
1360.0	0.0005188	115.734000206
1360.0	0.0005188	115.781000137
1360.0	0.000519	115.828000069
1360.0	0.000519	115.859000206
1360.0	0.0005188	115.906000137
1360.0	0.0005188	115.953000069
1360.0	0.0005193	115.984000206
1360.0	0.0005195	116.031000137
1360.0	0.00052	116.062000036
1360.0	0.0005205	116.109000206
1360.0	0.0005205	116.156000137
1370.0	0.0005055	116.421000004
1370.0	0.0005013	116.453000069
1370.0	0.0004968	116.5
1370.0	0.000494	116.546000004
1370.0	0.0004913	116.593000174
1370.0	0.0004893	116.625
1370.0	0.000488	116.671000004
1370.0	0.000487	116.703000069
1370.0	0.0004865	116.75
1370.0	0.0004855	116.796000004
1370.0	0.000485	116.843000174
1370.0	0.000484	116.875
1370.0	0.0004838	116.921000004
1370.0	0.0004838	116.953000069
1370.0	0.0004833	117.0
1370.0	0.0004825	117.046000004
1370.0	0.000482	117.078000069
1370.0	0.0004815	117.125
1370.0	0.0004813	117.171000004
1370.0	0.0004813	117.203000069
1370.0	0.0004815	117.25
1370.0	0.0004815	117.281000137
1370.0	0.0004818	117.328000069
1370.0	0.000482	117.375
1370.0	0.000482	117.406000137
1370.0	0.0004818	117.453000069
1370.0	0.0004813	117.5
1370.0	0.0004805	117.531000137
1370.0	0.0004808	117.578000069
1370.0	0.0004808	117.625
1370.0	0.0004805	117.656000137
1370.0	0.0004803	117.703000069
1370.0	0.00048	117.734000206
1370.0	0.0004795	117.781000137
1370.0	0.0004788	117.828000069
1370.0	0.0004793	117.859000206
1370.0	0.00048	117.906000137
1380.0	0.0004683	118.171000004
1380.0	0.000465	118.218000174
1380.0	0.0004625	118.25
1380.0	0.0004603	118.296000004
1380.0	0.000458	118.343000174
1380.0	0.0004563	118.375
1380.0	0.0004553	118.421000004
1380.0	0.0004543	118.453000069
1380.0	0.000454	118.5
1380.0	0.0004538	118.546000004
1380.0	0.0004533	118.578000069
1380.0	0.000453	118.625
1380.0	0.000452	118.671000004
1380.0	0.000452	118.703000069
1380.0	0.0004525	118.75
1380.0	0.000452	118.781000137
1380.0	0.0004525	118.828000069
1380.0	0.000453	118.875
1380.0	0.000453	118.921000004
1380.0	0.0004528	118.953000069
1380.0	0.0004528	119.0
1380.0	0.000453	119.031000137
1380.0	0.0004533	119.078000069
1380.0	0.0004538	119.125
1380.0	0.0004543	119.156000137
1380.0	0.0004545	119.203000069
1380.0	0.0004553	119.25
1380.0	0.0004553	119.281000137
1380.0	0.0004545	119.328000069
1380.0	0.0004545	119.375
1380.0	0.0004545	119.406000137
1380.0	0.000454	119.453000069
1380.0	0.000454	119.484000206
1380.0	0.0004545	119.531000137
1380.0	0.000455	119.578000069
1380.0	0.000455	119.609000206
1380.0	0.000455	119.656000137
1390.0	0.0004458	119.921000004
1390.0	0.0004438	119.968000174
1390.0	0.0004425	120.0
1390.0	0.00044	120.046000004
1390.0	0.0004383	120.093000174
1390.0	0.0004375	120.125
1390.0	0.0004363	120.171000004
1390.0	0.0004355	120.203000069
1390.0	0.0004355	120.25
1390.0	0.0004355	120.296000004
1390.0	0.0004355	120.328000069
1390.0	0.0004353	120.375
1390.0	0.0004353	120.421000004
1390.0	0.000435	120.453000069
1390.0	0.000435	120.5
1390.0	0.0004345	120.531000137
1390.0	0.000434	120.578000069
1390.0	0.0004338	120.625
1390.0	0.000434	120.656000137
1390.0	0.000434	120.703000069
1390.0	0.0004345	120.75
1390.0	0.0004353	120.781000137
1390.0	0.0004353	120.828000069
1390.0	0.000435	120.859000206
1390.0	0.0004353	120.906000137
1390.0	0.0004353	120.953000069
1390.0	0.0004345	121.0
1390.0	0.0004338	121.031000137
1390.0	0.0004338	121.078000069
1390.0	0.0004338	121.125
1390.0	0.0004343	121.156000137
1390.0	0.0004343	121.203000069
1390.0	0.000434	121.25
1390.0	0.0004345	121.281000137
1390.0	0.0004345	121.328000069
1390.0	0.0004343	121.375
1400.0	0.0004295	121.640000105
1400.0	0.0004283	121.671000004
1400.0	0.000427	121.718000174
1400.0	0.0004265	121.75
1400.0	0.0004253	121.796000004
1400.0	0.0004243	121.843000174
1400.0	0.000424	121.875
1400.0	0.0004233	121.921000004
1400.0	0.000423	121.968000174
1400.0	0.000423	122.0
1400.0	0.000423	122.046000004
1400.0	0.0004225	122.093000174
1400.0	0.0004225	122.125
1400.0	0.000423	122.171000004
1400.0	0.000423	122.203000069
1400.0	0.000423	122.25
1400.0	0.000423	122.296000004
1400.0	0.0004228	122.328000069
1400.0	0.0004228	122.375
1400.0	0.000423	122.421000004
1400.0	0.0004233	122.453000069
1400.0	0.0004233	122.5
1400.0	0.0004233	122.531000137
1400.0	0.000423	122.578000069
1400.0	0.000422	122.625
1400.0	0.0004225	122.656000137
1400.0	0.0004228	122.703000069
1400.0	0.000422	122.75
1400.0	0.000422	122.781000137
1400.0	0.0004228	122.828000069
1400.0	0.000423	122.875
1400.0	0.0004233	122.906000137
1400.0	0.000424	122.953000069
1400.0	0.0004245	122.984000206
1400.0	0.0004245	123.031000137
1400.0	0.0004243	123.078000069
1400.0	0.0004238	123.125
1410.0	0.000422	123.390000105
1410.0	0.0004208	123.421000004
1410.0	0.0004203	123.468000174
1410.0	0.00042	123.5
1410.0	0.0004193	123.546000004
1410.0	0.000419	123.593000174
1410.0	0.0004188	123.625
1410.0	0.0004193	123.671000004
1410.0	0.0004203	123.718000174
1410.0	0.0004203	123.75
1410.0	0.0004203	123.796000004
1410.0	0.0004203	123.828000069
1410.0	0.0004205	123.875
1410.0	0.0004213	123.921000004
1410.0	0.0004213	123.953000069
1410.0	0.0004208	124.0
1410.0	0.0004208	124.046000004
1410.0	0.0004205	124.093000174
1410.0	0.00042	124.125
1410.0	0.0004203	124.171000004
1410.0	0.0004213	124.203000069
1410.0	0.0004215	124.25
1410.0	0.0004215	124.296000004
1410.0	0.0004218	124.328000069
1410.0	0.0004215	124.375
1410.0	0.0004208	124.421000004
1410.0	0.0004203	124.453000069
1410.0	0.0004195	124.5
1410.0	0.0004193	124.531000137
1410.0	0.0004193	124.578000069
1410.0	0.0004193	124.625
1410.0	0.000419	124.656000137
1410.0	0.0004193	124.703000069
1410.0	0.0004193	124.75
1410.0	0.000419	124.781000137
1410.0	0.000419	124.828000069
1410.0	0.0004193	124.875
1420.0	0.0004208	125.140000105
1420.0	0.0004215	125.171000004
1420.0	0.000422	125.218000174
1420.0	0.0004225	125.25
1420.0	0.0004228	125.296000004
1420.0	0.0004233	125.343000174
1420.0	0.0004238	125.375
1420.0	0.0004243	125.421000004
1420.0	0.0004253	125.468000174
1420.0	0.0004255	125.5
1420.0	0.0004258	125.546000004
1420.0	0.0004268	125.578000069
1420.0	0.0004265	125.625
1420.0	0.0004263	125.671000004
1420.0	0.0004255	125.703000069
1420.0	0.0004253	125.75
1420.0	0.000425	125.796000004
1420.0	0.0004253	125.843000174
1420.0	0.0004258	125.875
1420.0	0.0004255	125.921000004
1420.0	0.0004255	125.953000069
1420.0	0.0004253	126.0
1420.0	0.000425	126.046000004
1420.0	0.0004245	126.078000069
1420.0	0.0004243	126.125
1420.0	0.0004238	126.171000004
1420.0	0.0004233	126.203000069
1420.0	0.000423	126.25
1420.0	0.0004233	126.281000137
1420.0	0.000423	126.328000069
1420.0	0.0004238	126.375
1420.0	0.000424	126.406000137
1420.0	0.000424	126.453000069
1420.0	0.0004238	126.5
1420.0	0.0004233	126.531000137
1420.0	0.0004225	126.578000069
1420.0	0.0004218	126.609000206
1430.0	0.0004275	126.890000105
1430.0	0.0004293	126.921000004
1430.0	0.0004305	126.968000174
1430.0	0.0004308	127.0
1430.0	0.0004305	127.046000004
1430.0	0.0004308	127.093000174
1430.0	0.0004308	127.125
1430.0	0.0004305	127.171000004
1430.0	0.0004313	127.218000174
1430.0	0.0004315	127.25
1430.0	0.0004315	127.296000004
1430.0	0.0004315	127.328000069
1430.0	0.0004315	127.375
1430.0	0.000432	127.421000004
1430.0	0.0004325	127.453000069
1430.0	0.0004328	127.5
1430.0	0.0004325	127.546000004
1430.0	0.0004328	127.578000069
1430.0	0.0004328	127.625
1430.0	0.0004325	127.671000004
1430.0	0.000432	127.703000069
1430.0	0.000433	127.75
1430.0	0.0004333	127.796000004
1430.0	0.0004338	127.828000069
1430.0	0.0004343	127.875
1430.0	0.0004343	127.921000004
1430.0	0.0004345	127.953000069
1430.0	0.0004343	128.0
1430.0	0.000434	128.031000137
1430.0	0.0004338	128.078000069
1430.0	0.0004333	128.125
1430.0	0.0004328	128.156000137
1430.0	0.0004328	128.203000069
1430.0	0.0004338	128.25
1430.0	0.0004343	128.281000137
1430.0	0.000434	128.328000069
1430.0	0.0004343	128.359000206
1440.0	0.000437	128.625
1440.0	0.0004378	128.671000004
1440.0	0.0004388	128.718000174
1440.0	0.0004395	128.75
1440.0	0.0004403	128.796000004
1440.0	0.0004413	128.843000174
1440.0	0.000442	128.875
1440.0	0.0004425	128.921000004
1440.0	0.0004425	128.968000174
1440.0	0.0004425	129.0
1440.0	0.0004425	129.046000004
1440.0	0.000443	129.078000069
1440.0	0.0004438	129.125
1440.0	0.0004443	129.171000004
1440.0	0.000444	129.203000069
1440.0	0.000444	129.25
1440.0	0.0004443	129.296000004
1440.0	0.0004443	129.328000069
1440.0	0.0004443	129.375
1440.0	0.000444	129.406000137
1440.0	0.0004438	129.453000069
1440.0	0.000444	129.5
1440.0	0.0004443	129.531000137
1440.0	0.0004443	129.578000069
1440.0	0.0004438	129.625
1440.0	0.000443	129.656000137
1440.0	0.000442	129.703000069
1440.0	0.0004408	129.75
1440.0	0.0004415	129.781000137
1440.0	0.000442	129.828000069
1440.0	0.000442	129.859000206
1440.0	0.0004425	129.906000137
1440.0	0.0004438	129.953000069
1440.0	0.000444	130.0
1440.0	0.000444	130.031000137
1440.0	0.0004445	130.078000069
1440.0	0.0004445	130.109000206
1450.0	0.000448	130.375
1450.0	0.0004493	130.421000004
1450.0	0.00045	130.468000174
1450.0	0.0004513	130.5
1450.0	0.000452	130.546000004
1450.0	0.0004528	130.593000174
1450.0	0.0004533	130.625
1450.0	0.000454	130.671000004
1450.0	0.0004538	130.718000174
1450.0	0.0004543	130.75
1450.0	0.0004543	130.796000004
1450.0	0.0004545	130.828000069
1450.0	0.0004545	130.875
1450.0	0.0004555	130.921000004
1450.0	0.0004558	130.968000174
1450.0	0.0004558	131.0
1450.0	0.0004563	131.046000004
1450.0	0.0004555	131.093000174
1450.0	0.0004553	131.125
1450.0	0.0004555	131.171000004
1450.0	0.0004555	131.218000174
1450.0	0.0004555	131.25
1450.0	0.0004563	131.296000004
1450.0	0.0004563	131.328000069
1450.0	0.0004563	131.375
1450.0	0.0004565	131.421000004
1450.0	0.0004568	131.468000174
1450.0	0.0004565	131.5
1450.0	0.0004563	131.546000004
1450.0	0.0004558	131.593000174
1450.0	0.0004555	131.625
1450.0	0.0004555	131.671000004
1450.0	0.0004555	131.703000069
1450.0	0.0004563	131.75
1450.0	0.0004565	131.796000004
1450.0	0.000457	131.828000069
1450.0	0.0004568	131.875
1460.0	0.000459	132.140000105
1460.0	0.00046	132.187000036
1460.0	0.0004613	132.218000174
1460.0	0.0004625	132.265000105
1460.0	0.000464	132.312000036
1460.0	0.0004645	132.343000174
1460.0	0.0004655	132.390000105
1460.0	0.0004655	132.421000004
1460.0	0.0004655	132.468000174
1460.0	0.0004655	132.515000105
1460.0	0.0004658	132.546000004
1460.0	0.0004663	132.593000174
1460.0	0.0004663	132.640000105
1460.0	0.0004668	132.671000004
1460.0	0.0004668	132.718000174
1460.0	0.0004668	132.75
1460.0	0.0004665	132.796000004
1460.0	0.0004668	132.843000174
1460.0	0.000467	132.875
1460.0	0.000467	132.921000004
1460.0	0.000467	132.968000174
1460.0	0.0004668	133.0
1460.0	0.0004668	133.046000004
1460.0	0.0004668	133.078000069
1460.0	0.0004658	133.125
1460.0	0.0004655	133.171000004
1460.0	0.000465	133.203000069
1460.0	0.000465	133.25
1460.0	0.000465	133.296000004
1460.0	0.0004658	133.328000069
1460.0	0.0004663	133.375
1460.0	0.0004663	133.421000004
1460.0	0.0004663	133.453000069
1460.0	0.0004668	133.5
1460.0	0.0004668	133.531000137
1460.0	0.0004668	133.578000069
1460.0	0.0004665	133.625
1470.0	0.0004688	133.890000105
1470.0	0.00047	133.937000036
1470.0	0.0004703	133.968000174
1470.0	0.0004713	134.015000105
1470.0	0.0004718	134.046000004
1470.0	0.0004725	134.093000174
1470.0	0.0004733	134.140000105
1470.0	0.0004743	134.171000004
1470.0	0.000475	134.218000174
1470.0	0.0004758	134.265000105
1470.0	0.0004763	134.296000004
1470.0	0.0004763	134.343000174
1470.0	0.0004755	134.390000105
1470.0	0.0004753	134.421000004
1470.0	0.0004755	134.468000174
1470.0	0.0004755	134.5
1470.0	0.0004755	134.546000004
1470.0	0.0004755	134.593000174
1470.0	0.0004763	134.625
1470.0	0.0004765	134.671000004
1470.0	0.0004768	134.718000174
1470.0	0.0004763	134.75
1470.0	0.0004753	134.796000004
1470.0	0.0004743	134.828000069
1470.0	0.0004733	134.875
1470.0	0.000473	134.921000004
1470.0	0.0004738	134.953000069
1470.0	0.000474	135.0
1470.0	0.0004743	135.046000004
1470.0	0.0004743	135.078000069
1470.0	0.0004743	135.125
1470.0	0.0004745	135.156000137
1470.0	0.0004745	135.203000069
1470.0	0.000475	135.25
1470.0	0.0004753	135.281000137
1470.0	0.000475	135.328000069
1470.0	0.0004753	135.375
1480.0	0.000475	135.640000105
1480.0	0.0004755	135.671000004
1480.0	0.0004763	135.718000174
1480.0	0.000477	135.765000105
1480.0	0.0004778	135.796000004
1480.0	0.0004788	135.843000174
1480.0	0.00048	135.875
1480.0	0.0004803	135.921000004
1480.0	0.0004805	135.968000174
1480.0	0.0004805	136.0
1480.0	0.0004805	136.046000004
1480.0	0.0004803	136.093000174
1480.0	0.0004805	136.125
1480.0	0.0004803	136.171000004
1480.0	0.0004805	136.218000174
1480.0	0.0004803	136.25
1480.0	0.0004805	136.296000004
1480.0	0.0004808	136.328000069
1480.0	0.0004813	136.375
1480.0	0.0004808	136.421000004
1480.0	0.0004805	136.453000069
1480.0	0.0004805	136.5
1480.0	0.00048	136.546000004
1480.0	0.0004795	136.578000069
1480.0	0.0004793	136.625
1480.0	0.0004793	136.671000004
1480.0	0.0004793	136.703000069
1480.0	0.000479	136.75
1480.0	0.0004793	136.796000004
1480.0	0.0004793	136.828000069
1480.0	0.00048	136.875
1480.0	0.00048	136.921000004
1480.0	0.0004795	136.953000069
1480.0	0.00048	137.0
1480.0	0.0004803	137.046000004
1480.0	0.0004803	137.078000069
1480.0	0.0004805	137.125
1490.0	0.0004838	137.390000105
1490.0	0.0004838	137.437000036
1490.0	0.0004838	137.468000174
1490.0	0.0004838	137.515000105
1490.0	0.0004838	137.562000036
1490.0	0.000484	137.593000174
1490.0	0.0004838	137.640000105
1490.0	0.000484	137.687000036
1490.0	0.000485	137.718000174
1490.0	0.000485	137.765000105
1490.0	0.0004845	137.812000036
1490.0	0.000485	137.843000174
1490.0	0.0004845	137.890000105
1490.0	0.0004843	137.937000036
1490.0	0.000484	137.968000174
1490.0	0.000484	138.015000105
1490.0	0.000484	138.062000036
1490.0	0.0004838	138.093000174
1490.0	0.0004838	138.140000105
1490.0	0.0004833	138.187000036
1490.0	0.000484	138.218000174
1490.0	0.0004843	138.265000105
1490.0	0.0004838	138.312000036
1490.0	0.0004843	138.343000174
1490.0	0.000485	138.390000105
1490.0	0.0004845	138.421000004
1490.0	0.0004845	138.468000174
1490.0	0.0004853	138.515000105
1490.0	0.0004855	138.546000004
1490.0	0.0004845	138.593000174
1490.0	0.0004843	138.640000105
1490.0	0.0004843	138.671000004
1490.0	0.0004845	138.718000174
1490.0	0.0004853	138.75
1490.0	0.0004858	138.796000004
1490.0	0.0004863	138.843000174
1500.0	0.0004883	139.109000206
1500.0	0.0004875	139.156000137
1500.0	0.000487	139.203000069
1500.0	0.0004868	139.234000206
1500.0	0.0004855	139.281000137
1500.0	0.0004855	139.312000036
1500.0	0.0004858	139.359000206
1500.0	0.0004858	139.406000137
1500.0	0.0004865	139.437000036
1500.0	0.000487	139.484000206
1500.0	0.0004875	139.531000137
1500.0	0.000487	139.562000036
1500.0	0.000487	139.609000206
1500.0	0.000487	139.640000105
1500.0	0.000487	139.687000036
1500.0	0.0004875	139.734000206
1500.0	0.000487	139.765000105
1500.0	0.0004865	139.812000036
1500.0	0.0004863	139.859000206
1500.0	0.0004855	139.890000105
1500.0	0.0004853	139.937000036
1500.0	0.0004853	139.984000206
1500.0	0.0004853	140.015000105
1500.0	0.000485	140.062000036
1500.0	0.0004855	140.109000206
1500.0	0.0004855	140.140000105
1500.0	0.0004858	140.187000036
1500.0	0.0004865	140.234000206
1500.0	0.0004878	140.265000105
1500.0	0.000488	140.312000036
1500.0	0.000488	140.343000174
1500.0	0.0004883	140.390000105
1500.0	0.0004883	140.437000036
1500.0	0.0004883	140.468000174
1500.0	0.0004883	140.515000105
1500.0	0.0004883	140.562000036
1500.0	0.0004888	140.593000174
1510.0	0.000488	140.875
1510.0	0.0004875	140.906000137
1510.0	0.0004878	140.953000069
1510.0	0.000488	141.0
1510.0	0.0004888	141.031000137
1510.0	0.0004893	141.078000069
1510.0	0.0004895	141.125
1510.0	0.0004893	141.156000137
1510.0	0.0004895	141.203000069
1510.0	0.0004895	141.25
1510.0	0.0004893	141.281000137
1510.0	0.0004893	141.328000069
1510.0	0.00049	141.359000206
1510.0	0.0004903	141.406000137
1510.0	0.00049	141.453000069
1510.0	0.0004903	141.484000206
1510.0	0.00049	141.531000137
1510.0	0.00049	141.578000069
1510.0	0.0004893	141.609000206
1510.0	0.0004888	141.656000137
1510.0	0.000488	141.687000036
1510.0	0.000488	141.734000206
1510.0	0.0004883	141.781000137
1510.0	0.0004883	141.812000036
1510.0	0.0004888	141.859000206
1510.0	0.000489	141.906000137
1510.0	0.0004893	141.937000036
1510.0	0.0004895	141.984000206
1510.0	0.0004903	142.015000105
1510.0	0.00049	142.062000036
1510.0	0.0004893	142.109000206
1510.0	0.0004895	142.140000105
1510.0	0.0004903	142.187000036
1510.0	0.0004895	142.234000206
1510.0	0.00049	142.265000105
1510.0	0.0004905	142.312000036
1510.0	0.0004905	142.343000174
1520.0	0.0004883	142.625
1520.0	0.0004878	142.671000004
1520.0	0.000488	142.703000069
1520.0	0.0004888	142.75
1520.0	0.0004883	142.796000004
1520.0	0.000488	142.828000069
1520.0	0.000488	142.875
1520.0	0.000488	142.921000004
1520.0	0.0004878	142.953000069
1520.0	0.0004875	143.0
1520.0	0.0004875	143.031000137
1520.0	0.0004878	143.078000069
1520.0	0.000488	143.125
1520.0	0.0004883	143.156000137
1520.0	0.000488	143.203000069
1520.0	0.0004883	143.25
1520.0	0.000489	143.281000137
1520.0	0.0004888	143.328000069
1520.0	0.0004883	143.359000206
1520.0	0.0004883	143.406000137
1520.0	0.0004875	143.453000069
1520.0	0.000487	143.484000206
1520.0	0.0004875	143.531000137
1520.0	0.0004878	143.578000069
1520.0	0.000488	143.609000206
1520.0	0.000488	143.656000137
1520.0	0.0004883	143.687000036
1520.0	0.000488	143.734000206
1520.0	0.000488	143.781000137
1520.0	0.000489	143.812000036
1520.0	0.0004895	143.859000206
1520.0	0.0004903	143.906000137
1520.0	0.0004903	143.937000036
1520.0	0.0004895	143.984000206
1520.0	0.000489	144.015000105
1520.0	0.000489	144.062000036
1520.0	0.0004883	144.109000206
1530.0	0.0004875	144.375
1530.0	0.0004865	144.421000004
1530.0	0.0004863	144.468000174
1530.0	0.0004865	144.5
1530.0	0.0004863	144.546000004
1530.0	0.0004863	144.593000174
1530.0	0.0004858	144.640000105
1530.0	0.0004853	144.671000004
1530.0	0.0004845	144.718000174
1530.0	0.0004845	144.75
1530.0	0.0004845	144.796000004
1530.0	0.0004845	144.843000174
1530.0	0.0004843	144.875
1530.0	0.000484	144.921000004
1530.0	0.0004843	144.968000174
1530.0	0.0004853	145.0
1530.0	0.0004853	145.046000004
1530.0	0.000485	145.093000174
1530.0	0.0004845	145.125
1530.0	0.000485	145.171000004
1530.0	0.000485	145.203000069
1530.0	0.0004853	145.25
1530.0	0.0004855	145.296000004
1530.0	0.0004855	145.328000069
1530.0	0.0004858	145.375
1530.0	0.0004853	145.421000004
1530.0	0.000485	145.453000069
1530.0	0.000485	145.5
1530.0	0.0004855	145.531000137
1530.0	0.0004858	145.578000069
1530.0	0.0004853	145.625
1530.0	0.0004845	145.656000137
1530.0	0.0004843	145.703000069
1530.0	0.0004843	145.75
1530.0	0.000485	145.781000137
1530.0	0.0004855	145.828000069
1530.0	0.000485	145.859000206
1540.0	0.0004815	146.140000105
1540.0	0.0004803	146.187000036
1540.0	0.00048	146.218000174
1540.0	0.0004795	146.265000105
1540.0	0.000479	146.312000036
1540.0	0.000479	146.343000174
1540.0	0.000479	146.390000105
1540.0	0.0004788	146.421000004
1540.0	0.000478	146.468000174
1540.0	0.000478	146.515000105
1540.0	0.000478	146.546000004
1540.0	0.000478	146.593000174
1540.0	0.0004783	146.640000105
1540.0	0.0004778	146.671000004
1540.0	0.0004778	146.718000174
1540.0	0.0004778	146.765000105
1540.0	0.000477	146.796000004
1540.0	0.000477	146.843000174
1540.0	0.0004775	146.890000105
1540.0	0.0004768	146.921000004
1540.0	0.0004765	146.968000174
1540.0	0.000477	147.015000105
1540.0	0.0004775	147.046000004
1540.0	0.0004778	147.093000174
1540.0	0.0004775	147.125
1540.0	0.0004778	147.171000004
1540.0	0.0004775	147.218000174
1540.0	0.0004778	147.25
1540.0	0.000478	147.296000004
1540.0	0.000478	147.343000174
1540.0	0.0004788	147.375
1540.0	0.000479	147.421000004
1540.0	0.0004788	147.453000069
1540.0	0.000478	147.5
1540.0	0.0004778	147.546000004
1540.0	0.000477	147.578000069
1540.0	0.000477	147.625
1550.0	0.0004728	147.890000105
1550.0	0.0004718	147.937000036
1550.0	0.0004713	147.984000206
1550.0	0.0004713	148.015000105
1550.0	0.0004705	148.062000036
1550.0	0.0004703	148.093000174
1550.0	0.00047	148.140000105
1550.0	0.0004693	148.187000036
1550.0	0.0004688	148.218000174
1550.0	0.0004683	148.265000105
1550.0	0.000468	148.312000036
1550.0	0.0004675	148.343000174
1550.0	0.0004675	148.390000105
1550.0	0.0004675	148.421000004
1550.0	0.0004675	148.468000174
1550.0	0.0004678	148.515000105
1550.0	0.000468	148.546000004
1550.0	0.0004678	148.593000174
1550.0	0.0004675	148.640000105
1550.0	0.0004675	148.671000004
1550.0	0.000467	148.718000174
1550.0	0.000467	148.765000105
1550.0	0.000467	148.796000004
1550.0	0.0004675	148.843000174
1550.0	0.0004678	148.890000105
1550.0	0.0004678	148.921000004
1550.0	0.0004675	148.968000174
1550.0	0.0004668	149.015000105
1550.0	0.0004663	149.046000004
1550.0	0.0004668	149.093000174
1550.0	0.0004668	149.125
1550.0	0.000467	149.171000004
1550.0	0.0004678	149.218000174
1550.0	0.0004675	149.25
1550.0	0.0004678	149.296000004
1550.0	0.0004678	149.343000174
1550.0	0.0004678	149.375
1560.0	0.000463	149.656000137
1560.0	0.0004608	149.703000069
1560.0	0.000459	149.734000206
1560.0	0.0004568	149.781000137
1560.0	0.0004545	149.828000069
1560.0	0.0004533	149.859000206
1560.0	0.0004525	149.906000137
1560.0	0.000452	149.953000069
1560.0	0.000452	149.984000206
1560.0	0.0004528	150.031000137
1560.0	0.0004525	150.062000036
1560.0	0.0004525	150.109000206
1560.0	0.0004528	150.156000137
1560.0	0.000453	150.187000036
1560.0	0.000453	150.234000206
1560.0	0.0004538	150.281000137
1560.0	0.000454	150.312000036
1560.0	0.0004543	150.359000206
1560.0	0.000454	150.390000105
1560.0	0.0004543	150.437000036
1560.0	0.0004543	150.484000206
1560.0	0.0004543	150.515000105
1560.0	0.0004545	150.562000036
1560.0	0.0004543	150.609000206
1560.0	0.0004538	150.640000105
1560.0	0.0004538	150.687000036
1560.0	0.0004533	150.718000174
1560.0	0.0004533	150.765000105
1560.0	0.0004533	150.812000036
1560.0	0.000453	150.843000174
1560.0	0.0004528	150.890000105
1560.0	0.0004525	150.937000036
1560.0	0.0004518	150.968000174
1560.0	0.0004515	151.015000105
1560.0	0.0004513	151.046000004
1560.0	0.0004513	151.093000174
1560.0	0.0004515	151.140000105
1570.0	0.0004463	151.406000137
1570.0	0.0004433	151.453000069
1570.0	0.0004415	151.5
1570.0	0.0004403	151.531000137
1570.0	0.0004383	151.578000069
1570.0	0.0004365	151.625
1570.0	0.0004355	151.656000137
1570.0	0.0004353	151.703000069
1570.0	0.000435	151.734000206
1570.0	0.0004345	151.781000137
1570.0	0.0004343	151.828000069
1570.0	0.0004343	151.859000206
1570.0	0.0004343	151.906000137
1570.0	0.000434	151.953000069
1570.0	0.0004338	151.984000206
1570.0	0.000434	152.031000137
1570.0	0.0004338	152.062000036
1570.0	0.0004338	152.109000206
1570.0	0.0004338	152.156000137
1570.0	0.0004338	152.187000036
1570.0	0.0004333	152.234000206
1570.0	0.0004333	152.281000137
1570.0	0.000434	152.312000036
1570.0	0.0004338	152.359000206
1570.0	0.0004333	152.390000105
1570.0	0.0004333	152.437000036
1570.0	0.0004333	152.484000206
1570.0	0.0004333	152.515000105
1570.0	0.0004333	152.562000036
1570.0	0.000433	152.609000206
1570.0	0.0004325	152.640000105
1570.0	0.000432	152.687000036
1570.0	0.0004318	152.718000174
1570.0	0.000432	152.765000105
1570.0	0.000432	152.812000036
1570.0	0.000432	152.843000174
1570.0	0.0004318	152.890000105
1580.0	0.000422	153.171000004
1580.0	0.000419	153.203000069
1580.0	0.0004165	153.25
1580.0	0.0004143	153.281000137
1580.0	0.0004128	153.328000069
1580.0	0.0004113	153.375
1580.0	0.0004105	153.406000137
1580.0	0.0004103	153.453000069
1580.0	0.00041	153.5
1580.0	0.0004103	153.531000137
1580.0	0.00041	153.578000069
1580.0	0.00041	153.625
1580.0	0.00041	153.656000137
1580.0	0.0004093	153.703000069
1580.0	0.000409	153.75
1580.0	0.000409	153.781000137
1580.0	0.000409	153.828000069
1580.0	0.000409	153.875
1580.0	0.0004095	153.906000137
1580.0	0.00041	153.953000069
1580.0	0.0004095	153.984000206
1580.0	0.0004095	154.031000137
1580.0	0.0004093	154.078000069
1580.0	0.0004093	154.109000206
1580.0	0.00041	154.156000137
1580.0	0.0004103	154.203000069
1580.0	0.00041	154.234000206
1580.0	0.0004093	154.281000137
1580.0	0.0004093	154.328000069
1580.0	0.0004088	154.359000206
1580.0	0.0004083	154.406000137
1580.0	0.0004083	154.453000069
1580.0	0.000408	154.484000206
1580.0	0.0004078	154.531000137
1580.0	0.0004075	154.578000069
1580.0	0.0004078	154.609000206
1580.0	0.000408	154.656000137
1590.0	0.0003988	154.921000004
1590.0	0.000395	154.968000174
1590.0	0.0003913	155.015000105
1590.0	0.0003883	155.046000004
1590.0	0.0003868	155.093000174
1590.0	0.0003858	155.140000105
1590.0	0.0003855	155.171000004
1590.0	0.0003853	155.218000174
1590.0	0.000384	155.25
1590.0	0.0003833	155.296000004
1590.0	0.0003828	155.343000174
1590.0	0.000383	155.390000105
1590.0	0.0003838	155.421000004
1590.0	0.0003838	155.468000174
1590.0	0.000383	155.5
1590.0	0.000382	155.546000004
1590.0	0.0003813	155.593000174
1590.0	0.0003805	155.625
1590.0	0.0003805	155.671000004
1590.0	0.0003803	155.718000174
1590.0	0.00038	155.75
1590.0	0.0003805	155.796000004
1590.0	0.0003808	155.828000069
1590.0	0.0003805	155.875
1590.0	0.0003805	155.921000004
1590.0	0.0003813	155.953000069
1590.0	0.0003808	156.0
1590.0	0.0003813	156.046000004
1590.0	0.0003815	156.078000069
1590.0	0.0003815	156.125
1590.0	0.0003818	156.171000004
1590.0	0.000382	156.203000069
1590.0	0.000382	156.25
1590.0	0.000382	156.281000137
1590.0	0.000382	156.328000069
1590.0	0.000382	156.375
1590.0	0.000382	156.406000137
1600.0	0.0003708	156.687000036
1600.0	0.000367	156.734000206
1600.0	0.000364	156.765000105
1600.0	0.0003618	156.812000036
1600.0	0.0003603	156.843000174
1600.0	0.0003588	156.890000105
1600.0	0.0003575	156.937000036
1600.0	0.0003555	156.968000174
1600.0	0.0003545	157.015000105
1600.0	0.0003543	157.062000036
1600.0	0.000354	157.093000174
1600.0	0.0003543	157.140000105
1600.0	0.000354	157.187000036
1600.0	0.000354	157.218000174
1600.0	0.0003543	157.265000105
1600.0	0.0003543	157.312000036
1600.0	0.000354	157.343000174
1600.0	0.0003538	157.390000105
1600.0	0.0003533	157.421000004
1600.0	0.0003528	157.468000174
1600.0	0.0003528	157.515000105
1600.0	0.0003533	157.546000004
1600.0	0.000353	157.593000174
1600.0	0.0003533	157.640000105
1600.0	0.0003533	157.671000004
1600.0	0.0003533	157.718000174
1600.0	0.000353	157.75
1600.0	0.0003525	157.796000004
1600.0	0.0003518	157.843000174
1600.0	0.0003518	157.875
1600.0	0.0003518	157.921000004
1600.0	0.0003525	157.968000174
1600.0	0.000352	158.015000105
1600.0	0.000352	158.046000004
1600.0	0.0003525	158.093000174
1600.0	0.0003528	158.125
1600.0	0.0003528	158.171000004
1610.0	0.0003405	158.453000069
1610.0	0.0003363	158.5
1610.0	0.0003325	158.531000137
1610.0	0.000329	158.578000069
1610.0	0.000327	158.609000206
1610.0	0.0003255	158.656000137
1610.0	0.0003245	158.703000069
1610.0	0.000324	158.734000206
1610.0	0.0003238	158.781000137
1610.0	0.0003238	158.828000069
1610.0	0.0003238	158.859000206
1610.0	0.0003238	158.906000137
1610.0	0.0003228	158.953000069
1610.0	0.0003225	158.984000206
1610.0	0.000322	159.031000137
1610.0	0.0003218	159.078000069
1610.0	0.0003218	159.109000206
1610.0	0.0003225	159.156000137
1610.0	0.000322	159.203000069
1610.0	0.000322	159.234000206
1610.0	0.000322	159.281000137
1610.0	0.0003218	159.312000036
1610.0	0.0003208	159.359000206
1610.0	0.0003208	159.406000137
1610.0	0.0003213	159.437000036
1610.0	0.0003213	159.484000206
1610.0	0.0003205	159.515000105
1610.0	0.0003203	159.562000036
1610.0	0.00032	159.609000206
1610.0	0.00032	159.640000105
1610.0	0.00032	159.687000036
1610.0	0.0003203	159.734000206
1610.0	0.0003205	159.765000105
1610.0	0.0003208	159.812000036
1610.0	0.0003208	159.859000206
1610.0	0.0003203	159.890000105
1610.0	0.0003205	159.937000036
1620.0	0.0003095	160.218000174
1620.0	0.0003065	160.25
1620.0	0.0003028	160.296000004
1620.0	0.0003003	160.343000174
1620.0	0.000298	160.375
1620.0	0.0002965	160.421000004
1620.0	0.000295	160.453000069
1620.0	0.0002938	160.5
1620.0	0.0002928	160.546000004
1620.0	0.000292	160.578000069
1620.0	0.0002918	160.625
1620.0	0.0002913	160.671000004
1620.0	0.0002905	160.703000069
1620.0	0.0002905	160.75
1620.0	0.0002905	160.781000137
1620.0	0.0002913	160.828000069
1620.0	0.0002913	160.875
1620.0	0.0002913	160.906000137
1620.0	0.0002908	160.953000069
1620.0	0.00029	161.0
1620.0	0.0002905	161.031000137
1620.0	0.0002903	161.078000069
1620.0	0.0002895	161.125
1620.0	0.0002895	161.156000137
1620.0	0.0002895	161.203000069
1620.0	0.0002893	161.234000206
1620.0	0.0002893	161.281000137
1620.0	0.0002893	161.328000069
1620.0	0.0002893	161.359000206
1620.0	0.0002895	161.406000137
1620.0	0.0002893	161.453000069
1620.0	0.0002888	161.484000206
1620.0	0.0002893	161.531000137
1620.0	0.00029	161.562000036
1620.0	0.00029	161.609000206
1620.0	0.00029	161.656000137
1620.0	0.0002905	161.687000036
1630.0	0.0002788	161.968000174
1630.0	0.000275	162.015000105
1630.0	0.0002718	162.062000036
1630.0	0.00027	162.093000174
1630.0	0.0002678	162.140000105
1630.0	0.0002655	162.187000036
1630.0	0.000264	162.218000174
1630.0	0.000263	162.265000105
1630.0	0.000263	162.296000004
1630.0	0.000263	162.343000174
1630.0	0.0002628	162.390000105
1630.0	0.000262	162.421000004
1630.0	0.0002618	162.468000174
1630.0	0.0002618	162.515000105
1630.0	0.0002615	162.546000004
1630.0	0.0002613	162.593000174
1630.0	0.0002613	162.625
1630.0	0.0002613	162.671000004
1630.0	0.0002608	162.718000174
1630.0	0.0002613	162.75
1630.0	0.0002613	162.796000004
1630.0	0.0002608	162.843000174
1630.0	0.0002605	162.875
1630.0	0.0002613	162.921000004
1630.0	0.0002615	162.968000174
1630.0	0.0002608	163.0
1630.0	0.0002613	163.046000004
1630.0	0.0002608	163.078000069
1630.0	0.0002608	163.125
1630.0	0.0002608	163.171000004
1630.0	0.0002608	163.203000069
1630.0	0.0002603	163.25
1630.0	0.00026	163.296000004
1630.0	0.0002595	163.328000069
1630.0	0.0002595	163.375
1630.0	0.0002595	163.421000004
1630.0	0.0002595	163.453000069
1640.0	0.0002505	163.734000206
1640.0	0.0002465	163.781000137
1640.0	0.000244	163.828000069
1640.0	0.0002413	163.859000206
1640.0	0.0002393	163.906000137
1640.0	0.0002375	163.953000069
1640.0	0.0002365	163.984000206
1640.0	0.000235	164.031000137
1640.0	0.0002338	164.078000069
1640.0	0.000233	164.109000206
1640.0	0.000232	164.156000137
1640.0	0.000232	164.187000036
1640.0	0.0002325	164.234000206
1640.0	0.0002325	164.281000137
1640.0	0.0002325	164.312000036
1640.0	0.0002325	164.359000206
1640.0	0.0002333	164.406000137
1640.0	0.0002338	164.437000036
1640.0	0.0002333	164.484000206
1640.0	0.000233	164.515000105
1640.0	0.000232	164.562000036
1640.0	0.000232	164.609000206
1640.0	0.0002325	164.640000105
1640.0	0.000233	164.687000036
1640.0	0.0002328	164.734000206
1640.0	0.000233	164.765000105
1640.0	0.0002333	164.812000036
1640.0	0.0002333	164.843000174
1640.0	0.0002333	164.890000105
1640.0	0.0002333	164.937000036
1640.0	0.000233	164.968000174
1640.0	0.000233	165.015000105
1640.0	0.0002333	165.062000036
1640.0	0.0002325	165.093000174
1640.0	0.0002325	165.140000105
1640.0	0.0002328	165.171000004
1640.0	0.000233	165.218000174
1650.0	0.0002238	165.5
1650.0	0.000219	165.546000004
1650.0	0.0002163	165.593000174
1650.0	0.0002138	165.625
1650.0	0.0002125	165.671000004
1650.0	0.0002118	165.703000069
1650.0	0.0002113	165.75
1650.0	0.0002105	165.796000004
1650.0	0.00021	165.828000069
1650.0	0.000209	165.875
1650.0	0.000208	165.921000004
1650.0	0.0002075	165.953000069
1650.0	0.000207	166.0
1650.0	0.0002065	166.031000137
1650.0	0.0002065	166.078000069
1650.0	0.0002068	166.125
1650.0	0.0002068	166.156000137
1650.0	0.0002068	166.203000069
1650.0	0.0002075	166.25
1650.0	0.0002075	166.281000137
1650.0	0.000207	166.328000069
1650.0	0.0002075	166.359000206
1650.0	0.0002078	166.406000137
1650.0	0.0002078	166.453000069
1650.0	0.000208	166.5
1650.0	0.0002075	166.531000137
1650.0	0.0002068	166.578000069
1650.0	0.000207	166.609000206
1650.0	0.000207	166.656000137
1650.0	0.0002065	166.703000069
1650.0	0.0002063	166.734000206
1650.0	0.0002063	166.781000137
1650.0	0.0002058	166.828000069
1650.0	0.0002063	166.859000206
1650.0	0.0002063	166.906000137
1650.0	0.000207	166.953000069
1660.0	0.0001993	167.234000206
1660.0	0.0001958	167.265000105
1660.0	0.0001933	167.312000036
1660.0	0.0001908	167.343000174
1660.0	0.0001888	167.390000105
1660.0	0.0001878	167.437000036
1660.0	0.0001865	167.468000174
1660.0	0.000185	167.515000105
1660.0	0.0001838	167.562000036
1660.0	0.0001833	167.593000174
1660.0	0.0001828	167.640000105
1660.0	0.000182	167.687000036
1660.0	0.0001825	167.718000174
1660.0	0.0001825	167.765000105
1660.0	0.0001825	167.796000004
1660.0	0.0001828	167.843000174
1660.0	0.0001825	167.890000105
1660.0	0.000183	167.921000004
1660.0	0.0001833	167.968000174
1660.0	0.0001838	168.015000105
1660.0	0.000184	168.046000004
1660.0	0.000184	168.093000174
1660.0	0.000184	168.140000105
1660.0	0.0001838	168.171000004
1660.0	0.000184	168.218000174
1660.0	0.000184	168.265000105
1660.0	0.000184	168.296000004
1660.0	0.000184	168.343000174
1660.0	0.0001843	168.390000105
1660.0	0.0001845	168.421000004
1660.0	0.000185	168.468000174
1660.0	0.000185	168.515000105
1660.0	0.000185	168.546000004
1660.0	0.0001855	168.593000174
1660.0	0.0001858	168.640000105
1660.0	0.0001855	168.671000004
1660.0	0.0001858	168.718000174
1670.0	0.0001783	169.0
1670.0	0.0001743	169.046000004
1670.0	0.0001718	169.078000069
1670.0	0.0001703	169.125
1670.0	0.0001688	169.171000004
1670.0	0.0001675	169.203000069
1670.0	0.0001663	169.25
1670.0	0.000165	169.296000004
1670.0	0.0001638	169.328000069
1670.0	0.0001628	169.375
1670.0	0.000162	169.406000137
1670.0	0.000162	169.453000069
1670.0	0.0001618	169.5
1670.0	0.000162	169.531000137
1670.0	0.0001628	169.578000069
1670.0	0.0001628	169.625
1670.0	0.000163	169.656000137
1670.0	0.0001633	169.703000069
1670.0	0.0001638	169.75
1670.0	0.0001643	169.781000137
1670.0	0.0001643	169.828000069
1670.0	0.0001643	169.859000206
1670.0	0.0001643	169.906000137
1670.0	0.000164	169.953000069
1670.0	0.0001638	169.984000206
1670.0	0.0001633	170.031000137
1670.0	0.0001633	170.078000069
1670.0	0.0001633	170.109000206
1670.0	0.0001628	170.156000137
1670.0	0.000163	170.187000036
1670.0	0.0001625	170.234000206
1670.0	0.000162	170.281000137
1670.0	0.000162	170.312000036
1670.0	0.0001625	170.359000206
1670.0	0.0001628	170.406000137
1670.0	0.0001633	170.437000036
1670.0	0.000164	170.484000206
1680.0	0.0001588	170.765000105
1680.0	0.0001558	170.812000036
1680.0	0.0001543	170.843000174
1680.0	0.0001533	170.890000105
1680.0	0.0001525	170.937000036
1680.0	0.0001513	170.968000174
1680.0	0.0001505	171.015000105
1680.0	0.0001495	171.062000036
1680.0	0.000149	171.093000174
1680.0	0.0001495	171.140000105
1680.0	0.0001493	171.187000036
1680.0	0.000149	171.218000174
1680.0	0.0001493	171.265000105
1680.0	0.0001488	171.296000004
1680.0	0.0001483	171.343000174
1680.0	0.0001483	171.390000105
1680.0	0.0001478	171.421000004
1680.0	0.0001468	171.468000174
1680.0	0.0001465	171.515000105
1680.0	0.0001463	171.546000004
1680.0	0.0001463	171.593000174
1680.0	0.0001463	171.625
1680.0	0.0001465	171.671000004
1680.0	0.0001458	171.718000174
1680.0	0.0001463	171.765000105
1680.0	0.0001463	171.796000004
1680.0	0.0001458	171.843000174
1680.0	0.0001458	171.875
1680.0	0.0001458	171.921000004
1680.0	0.0001458	171.968000174
1680.0	0.0001463	172.0
1680.0	0.0001468	172.046000004
1680.0	0.0001468	172.093000174
1680.0	0.0001463	172.125
1680.0	0.0001463	172.171000004
1680.0	0.0001463	172.203000069
1680.0	0.0001458	172.25
1690.0	0.00014	172.546000004
1690.0	0.0001375	172.578000069
1690.0	0.0001355	172.625
1690.0	0.000134	172.656000137
1690.0	0.0001325	172.703000069
1690.0	0.0001315	172.75
1690.0	0.0001308	172.781000137
1690.0	0.0001305	172.828000069
1690.0	0.0001305	172.875
1690.0	0.0001303	172.906000137
1690.0	0.0001308	172.953000069
1690.0	0.0001315	172.984000206
1690.0	0.0001313	173.031000137
1690.0	0.0001308	173.078000069
1690.0	0.0001305	173.109000206
1690.0	0.0001305	173.156000137
1690.0	0.0001303	173.203000069
1690.0	0.0001308	173.234000206
1690.0	0.0001308	173.281000137
1690.0	0.0001305	173.328000069
1690.0	0.0001308	173.359000206
1690.0	0.0001313	173.406000137
1690.0	0.0001313	173.437000036
1690.0	0.0001313	173.484000206
1690.0	0.0001308	173.531000137
1690.0	0.0001305	173.562000036
1690.0	0.0001308	173.609000206
1690.0	0.0001303	173.640000105
1690.0	0.0001295	173.687000036
1690.0	0.0001303	173.734000206
1690.0	0.0001305	173.765000105
1690.0	0.0001303	173.812000036
1690.0	0.0001303	173.859000206
1690.0	0.0001305	173.890000105
1690.0	0.0001308	173.937000036
1690.0	0.0001315	173.984000206
1690.0	0.0001315	174.015000105
1700.0	0.0001283	174.312000036
1700.0	0.0001265	174.343000174
1700.0	0.0001245	174.390000105
1700.0	0.000123	174.421000004
1700.0	0.0001218	174.468000174
1700.0	0.0001208	174.515000105
1700.0	0.0001205	174.546000004
1700.0	0.0001203	174.593000174
1700.0	0.0001203	174.640000105
1700.0	0.0001208	174.671000004
1700.0	0.0001213	174.718000174
1700.0	0.0001208	174.75
1700.0	0.0001205	174.796000004
1700.0	0.0001203	174.843000174
1700.0	0.0001195	174.875
1700.0	0.0001195	174.921000004
1700.0	0.0001193	174.968000174
1700.0	0.0001193	175.0
1700.0	0.0001183	175.046000004
1700.0	0.000118	175.093000174
1700.0	0.0001183	175.125
1700.0	0.0001183	175.171000004
1700.0	0.000118	175.218000174
1700.0	0.0001178	175.25
1700.0	0.000117	175.296000004
1700.0	0.0001175	175.343000174
1700.0	0.000117	175.375
1700.0	0.0001165	175.421000004
1700.0	0.0001168	175.453000069
1700.0	0.0001175	175.5
1700.0	0.0001175	175.546000004
1700.0	0.0001178	175.578000069
1700.0	0.000118	175.625
1700.0	0.000118	175.671000004
1700.0	0.0001175	175.703000069
1700.0	0.0001175	175.75
1700.0	0.000117	175.796000004
1710.0	0.0001143	176.078000069
1710.0	0.000113	176.125
1710.0	0.0001118	176.156000137
1710.0	0.0001105	176.203000069
1710.0	0.000109	176.25
1710.0	0.000108	176.281000137
1710.0	0.000107	176.328000069
1710.0	0.0001063	176.375
1710.0	0.0001058	176.406000137
1710.0	0.0001058	176.453000069
1710.0	0.0001055	176.484000206
1710.0	0.0001063	176.531000137
1710.0	0.0001063	176.578000069
1710.0	0.0001053	176.609000206
1710.0	0.0001055	176.656000137
1710.0	0.0001058	176.703000069
1710.0	0.0001055	176.734000206
1710.0	0.0001063	176.781000137
1710.0	0.0001068	176.812000036
1710.0	0.000107	176.859000206
1710.0	0.0001078	176.906000137
1710.0	0.0001088	176.937000036
1710.0	0.0001088	176.984000206
1710.0	0.0001088	177.031000137
1710.0	0.000109	177.062000036
1710.0	0.000109	177.109000206
1710.0	0.0001088	177.140000105
1710.0	0.0001088	177.187000036
1710.0	0.0001088	177.234000206
1710.0	0.0001088	177.265000105
1710.0	0.0001088	177.312000036
1710.0	0.0001093	177.359000206
1710.0	0.000109	177.390000105
1710.0	0.0001088	177.437000036
1710.0	0.000108	177.468000174
1710.0	0.000107	177.515000105
1710.0	0.0001063	177.562000036
1720.0	0.0001018	177.843000174
1720.0	0.0001003	177.890000105
1720.0	9.93e-05	177.921000004
1720.0	9.88e-05	177.968000174
1720.0	9.88e-05	178.015000105
1720.0	9.83e-05	178.046000004
1720.0	9.8e-05	178.093000174
1720.0	9.83e-05	178.140000105
1720.0	9.83e-05	178.171000004
1720.0	9.83e-05	178.218000174
1720.0	9.88e-05	178.25
1720.0	9.88e-05	178.296000004
1720.0	9.83e-05	178.343000174
1720.0	9.8e-05	178.375
1720.0	9.8e-05	178.421000004
1720.0	9.78e-05	178.468000174
1720.0	9.8e-05	178.5
1720.0	9.83e-05	178.546000004
1720.0	9.8e-05	178.578000069
1720.0	9.8e-05	178.625
1720.0	9.8e-05	178.671000004
1720.0	9.75e-05	178.703000069
1720.0	9.68e-05	178.75
1720.0	9.68e-05	178.796000004
1720.0	9.7e-05	178.828000069
1720.0	9.68e-05	178.875
1720.0	9.7e-05	178.921000004
1720.0	9.75e-05	178.968000174
1720.0	9.78e-05	179.0
1720.0	9.78e-05	179.046000004
1720.0	9.68e-05	179.093000174
1720.0	9.68e-05	179.125
1720.0	9.65e-05	179.171000004
1720.0	9.63e-05	179.203000069
1720.0	9.58e-05	179.25
1720.0	9.63e-05	179.296000004
1730.0	9.5e-05	179.578000069
1730.0	9.38e-05	179.625
1730.0	9.33e-05	179.671000004
1730.0	9.25e-05	179.703000069
1730.0	9.18e-05	179.75
1730.0	9.13e-05	179.781000137
1730.0	9.13e-05	179.828000069
1730.0	9.08e-05	179.875
1730.0	9.03e-05	179.921000004
1730.0	8.95e-05	179.953000069
1730.0	8.95e-05	180.0
1730.0	8.93e-05	180.046000004
1730.0	8.93e-05	180.078000069
1730.0	8.93e-05	180.125
1730.0	8.88e-05	180.156000137
1730.0	8.88e-05	180.203000069
1730.0	8.9e-05	180.25
1730.0	8.9e-05	180.281000137
1730.0	8.9e-05	180.328000069
1730.0	8.88e-05	180.375
1730.0	8.8e-05	180.406000137
1730.0	8.8e-05	180.453000069
1730.0	8.88e-05	180.484000206
1730.0	8.93e-05	180.531000137
1730.0	9e-05	180.578000069
1730.0	8.95e-05	180.609000206
1730.0	8.93e-05	180.656000137
1730.0	8.9e-05	180.703000069
1730.0	8.93e-05	180.734000206
1730.0	8.88e-05	180.781000137
1730.0	8.88e-05	180.812000036
1730.0	8.88e-05	180.859000206
1730.0	8.88e-05	180.906000137
1730.0	8.78e-05	180.937000036
1730.0	8.8e-05	180.984000206
1730.0	8.8e-05	181.031000137
1730.0	8.78e-05	181.078000069
1740.0	8.58e-05	181.359000206
1740.0	8.5e-05	181.390000105
1740.0	8.4e-05	181.437000036
1740.0	8.33e-05	181.484000206
1740.0	8.3e-05	181.515000105
1740.0	8.2e-05	181.562000036
1740.0	8.13e-05	181.609000206
1740.0	8.13e-05	181.640000105
1740.0	8.15e-05	181.687000036
1740.0	8.15e-05	181.734000206
1740.0	8.13e-05	181.765000105
1740.0	8.13e-05	181.812000036
1740.0	8.08e-05	181.843000174
1740.0	8.08e-05	181.890000105
1740.0	8.08e-05	181.937000036
1740.0	8.08e-05	181.968000174
1740.0	8.08e-05	182.015000105
1740.0	8.08e-05	182.062000036
1740.0	8.03e-05	182.093000174
1740.0	8e-05	182.140000105
1740.0	8e-05	182.171000004
1740.0	8e-05	182.218000174
1740.0	8.08e-05	182.265000105
1740.0	8.15e-05	182.296000004
1740.0	8.15e-05	182.343000174
1740.0	8.18e-05	182.390000105
1740.0	8.15e-05	182.421000004
1740.0	8.18e-05	182.468000174
1740.0	8.13e-05	182.5
1740.0	8.13e-05	182.546000004
1740.0	8.15e-05	182.593000174
1740.0	8.2e-05	182.625
1740.0	8.2e-05	182.671000004
1740.0	8.2e-05	182.718000174
1740.0	8.13e-05	182.75
1740.0	8.08e-05	182.796000004
1740.0	8.13e-05	182.843000174
1750.0	7.9e-05	183.125
1750.0	7.75e-05	183.171000004
1750.0	7.58e-05	183.203000069
1750.0	7.55e-05	183.25
1750.0	7.55e-05	183.281000137
1750.0	7.53e-05	183.328000069
1750.0	7.5e-05	183.375
1750.0	7.5e-05	183.406000137
1750.0	7.5e-05	183.453000069
1750.0	7.58e-05	183.5
1750.0	7.65e-05	183.531000137
1750.0	7.68e-05	183.578000069
1750.0	7.68e-05	183.609000206
1750.0	7.63e-05	183.656000137
1750.0	7.53e-05	183.703000069
1750.0	7.45e-05	183.734000206
1750.0	7.43e-05	183.781000137
1750.0	7.4e-05	183.828000069
1750.0	7.4e-05	183.859000206
1750.0	7.43e-05	183.906000137
1750.0	7.45e-05	183.937000036
1750.0	7.43e-05	183.984000206
1750.0	7.43e-05	184.031000137
1750.0	7.45e-05	184.062000036
1750.0	7.4e-05	184.109000206
1750.0	7.43e-05	184.156000137
1750.0	7.45e-05	184.187000036
1750.0	7.45e-05	184.234000206
1750.0	7.45e-05	184.265000105
1750.0	7.5e-05	184.312000036
1750.0	7.5e-05	184.359000206
1750.0	7.45e-05	184.390000105
1750.0	7.5e-05	184.437000036
1750.0	7.43e-05	184.484000206
1750.0	7.43e-05	184.515000105
1750.0	7.45e-05	184.562000036
1750.0	7.43e-05	184.609000206
1760.0	7.15e-05	184.890000105
1760.0	7.05e-05	184.937000036
1760.0	7e-05	184.968000174
1760.0	7e-05	185.015000105
1760.0	7e-05	185.046000004
1760.0	7.05e-05	185.093000174
1760.0	7e-05	185.140000105
1760.0	6.9e-05	185.171000004
1760.0	6.9e-05	185.218000174
1760.0	6.9e-05	185.265000105
1760.0	6.88e-05	185.296000004
1760.0	6.83e-05	185.343000174
1760.0	6.78e-05	185.375
1760.0	6.78e-05	185.421000004
1760.0	6.8e-05	185.468000174
1760.0	6.8e-05	185.5
1760.0	6.8e-05	185.546000004
1760.0	6.78e-05	185.593000174
1760.0	6.75e-05	185.625
1760.0	6.7e-05	185.671000004
1760.0	6.7e-05	185.718000174
1760.0	6.75e-05	185.75
1760.0	6.7e-05	185.796000004
1760.0	6.65e-05	185.828000069
1760.0	6.65e-05	185.875
1760.0	6.68e-05	185.921000004
1760.0	6.63e-05	185.953000069
1760.0	6.63e-05	186.0
1760.0	6.68e-05	186.046000004
1760.0	6.78e-05	186.078000069
1760.0	6.8e-05	186.125
1760.0	6.9e-05	186.156000137
1760.0	6.9e-05	186.203000069
1760.0	6.9e-05	186.25
1760.0	6.93e-05	186.281000137
1760.0	6.88e-05	186.328000069
1760.0	6.83e-05	186.375
1770.0	6.63e-05	186.656000137
1770.0	6.53e-05	186.703000069
1770.0	6.38e-05	186.734000206
1770.0	6.25e-05	186.781000137
1770.0	6.18e-05	186.828000069
1770.0	6.15e-05	186.859000206
1770.0	6.13e-05	186.906000137
1770.0	6.13e-05	186.937000036
1770.0	6.18e-05	186.984000206
1770.0	6.18e-05	187.031000137
1770.0	6.18e-05	187.062000036
1770.0	6.25e-05	187.109000206
1770.0	6.15e-05	187.156000137
1770.0	6.15e-05	187.187000036
1770.0	6.18e-05	187.234000206
1770.0	6.18e-05	187.265000105
1770.0	6.15e-05	187.312000036
1770.0	6.2e-05	187.359000206
1770.0	6.25e-05	187.390000105
1770.0	6.28e-05	187.437000036
1770.0	6.3e-05	187.484000206
1770.0	6.38e-05	187.515000105
1770.0	6.38e-05	187.562000036
1770.0	6.38e-05	187.593000174
1770.0	6.4e-05	187.640000105
1770.0	6.33e-05	187.687000036
1770.0	6.3e-05	187.718000174
1770.0	6.28e-05	187.765000105
1770.0	6.28e-05	187.812000036
1770.0	6.3e-05	187.843000174
1770.0	6.25e-05	187.890000105
1770.0	6.2e-05	187.937000036
1770.0	6.15e-05	187.968000174
1770.0	6.15e-05	188.015000105
1770.0	6.13e-05	188.062000036
1770.0	6.08e-05	188.093000174
1770.0	6.08e-05	188.140000105
1780.0	5.75e-05	188.421000004
1780.0	5.65e-05	188.468000174
1780.0	5.58e-05	188.515000105
1780.0	5.63e-05	188.546000004
1780.0	5.58e-05	188.593000174
1780.0	5.58e-05	188.625
1780.0	5.55e-05	188.671000004
1780.0	5.55e-05	188.718000174
1780.0	5.55e-05	188.75
1780.0	5.55e-05	188.796000004
1780.0	5.55e-05	188.843000174
1780.0	5.53e-05	188.875
1780.0	5.53e-05	188.921000004
1780.0	5.55e-05	188.968000174
1780.0	5.58e-05	189.015000105
1780.0	5.63e-05	189.046000004
1780.0	5.58e-05	189.093000174
1780.0	5.55e-05	189.140000105
1780.0	5.55e-05	189.171000004
1780.0	5.55e-05	189.218000174
1780.0	5.45e-05	189.265000105
1780.0	5.43e-05	189.296000004
1780.0	5.45e-05	189.343000174
1780.0	5.45e-05	189.390000105
1780.0	5.5e-05	189.421000004
1780.0	5.45e-05	189.468000174
1780.0	5.4e-05	189.5
1780.0	5.4e-05	189.546000004
1780.0	5.45e-05	189.593000174
1780.0	5.45e-05	189.625
1780.0	5.5e-05	189.671000004
1780.0	5.5e-05	189.718000174
1780.0	5.45e-05	189.75
1780.0	5.5e-05	189.796000004
1780.0	5.53e-05	189.843000174
1780.0	5.5e-05	189.890000105
1790.0	5.33e-05	190.171000004
1790.0	5.28e-05	190.218000174
1790.0	5.15e-05	190.25
1790.0	5.08e-05	190.296000004
1790.0	5.08e-05	190.343000174
1790.0	5.03e-05	190.375
1790.0	4.9e-05	190.421000004
1790.0	4.88e-05	190.453000069
1790.0	4.88e-05	190.5
1790.0	4.8e-05	190.546000004
1790.0	4.83e-05	190.578000069
1790.0	4.9e-05	190.625
1790.0	4.95e-05	190.671000004
1790.0	4.93e-05	190.703000069
1790.0	4.9e-05	190.75
1790.0	4.93e-05	190.781000137
1790.0	4.93e-05	190.828000069
1790.0	4.9e-05	190.875
1790.0	4.88e-05	190.906000137
1790.0	4.88e-05	190.953000069
1790.0	4.88e-05	191.0
1790.0	4.9e-05	191.031000137
1790.0	4.95e-05	191.078000069
1790.0	5.03e-05	191.109000206
1790.0	5.05e-05	191.156000137
1790.0	5.08e-05	191.203000069
1790.0	5.08e-05	191.234000206
1790.0	5.05e-05	191.281000137
1790.0	5.03e-05	191.328000069
1790.0	4.93e-05	191.375
1790.0	4.83e-05	191.406000137
1790.0	4.75e-05	191.453000069
1790.0	4.75e-05	191.484000206
1790.0	4.8e-05	191.531000137
1790.0	4.83e-05	191.578000069
1790.0	4.88e-05	191.609000206
1790.0	4.88e-05	191.656000137
1800.0	4.68e-05	191.953000069
1800.0	4.65e-05	191.984000206
1800.0	4.63e-05	192.031000137
1800.0	4.58e-05	192.062000036
1800.0	4.53e-05	192.109000206
1800.0	4.45e-05	192.156000137
1800.0	4.38e-05	192.187000036
1800.0	4.3e-05	192.234000206
1800.0	4.33e-05	192.281000137
1800.0	4.33e-05	192.312000036
1800.0	4.38e-05	192.359000206
1800.0	4.45e-05	192.406000137
1800.0	4.53e-05	192.437000036
1800.0	4.45e-05	192.484000206
1800.0	4.43e-05	192.531000137
1800.0	4.43e-05	192.562000036
1800.0	4.43e-05	192.609000206
1800.0	4.33e-05	192.640000105
1800.0	4.3e-05	192.687000036
1800.0	4.2e-05	192.734000206
1800.0	4.13e-05	192.781000137
1800.0	4.08e-05	192.812000036
1800.0	4.05e-05	192.859000206
1800.0	4.13e-05	192.890000105
1800.0	4.2e-05	192.937000036
1800.0	4.25e-05	192.984000206
1800.0	4.25e-05	193.015000105
1800.0	4.28e-05	193.062000036
1800.0	4.3e-05	193.109000206
1800.0	4.33e-05	193.140000105
1800.0	4.3e-05	193.187000036
1800.0	4.33e-05	193.234000206
1800.0	4.3e-05	193.265000105
1800.0	4.28e-05	193.312000036
1800.0	4.3e-05	193.359000206
1800.0	4.33e-05	193.390000105
1800.0	4.38e-05	193.437000036
