Your edit line - do NOT delete this line
Wavelength [nm], Voltage [V], Elapsed time [s]
900.0	0.0002175	8.48500013351
900.0	0.0002128	8.51600003242
900.0	0.0002095	8.56299996376
900.0	0.0002068	8.61000013351
900.0	0.0002045	8.64100003242
900.0	0.000203	8.68799996376
900.0	0.0002018	8.73500013351
900.0	0.0002015	8.76600003242
900.0	0.0002008	8.81299996376
900.0	0.0002	8.84400010109
900.0	0.0002	8.89100003242
900.0	0.0001993	8.93799996376
900.0	0.0001993	8.96900010109
900.0	0.0001993	9.01600003242
900.0	0.000199	9.06299996376
900.0	0.0001988	9.09400010109
900.0	0.0001988	9.14100003242
900.0	0.0001983	9.17200016975
900.0	0.0001988	9.21900010109
900.0	0.0001988	9.26600003242
900.0	0.0001988	9.29700016975
900.0	0.0001988	9.34400010109
900.0	0.0001983	9.39100003242
900.0	0.0001983	9.42200016975
900.0	0.0001983	9.46900010109
900.0	0.0001983	9.5
900.0	0.0001983	9.54700016975
900.0	0.0001988	9.59400010109
900.0	0.0001983	9.625
900.0	0.000198	9.67200016975
900.0	0.000198	9.71900010109
900.0	0.000198	9.75
900.0	0.000198	9.79700016975
900.0	0.000198	9.84400010109
900.0	0.0001983	9.875
900.0	0.0001988	9.92200016975
900.0	0.0001988	9.95300006866
910.0	0.0002068	10.2660000324
910.0	0.00021	10.3129999638
910.0	0.0002125	10.3440001011
910.0	0.0002145	10.3910000324
910.0	0.0002155	10.4379999638
910.0	0.0002168	10.4690001011
910.0	0.0002175	10.5160000324
910.0	0.0002175	10.5470001698
910.0	0.0002178	10.5940001011
910.0	0.000218	10.6410000324
910.0	0.000218	10.6720001698
910.0	0.0002183	10.7190001011
910.0	0.0002183	10.7660000324
910.0	0.000219	10.7970001698
910.0	0.000219	10.8440001011
910.0	0.0002193	10.8910000324
910.0	0.0002193	10.9220001698
910.0	0.0002193	10.9690001011
910.0	0.0002193	11.0
910.0	0.00022	11.0470001698
910.0	0.0002195	11.0940001011
910.0	0.00022	11.125
910.0	0.00022	11.1720001698
910.0	0.0002195	11.2190001011
910.0	0.0002193	11.25
910.0	0.0002195	11.2970001698
910.0	0.000219	11.3280000687
910.0	0.000219	11.375
910.0	0.0002188	11.4220001698
910.0	0.0002183	11.4530000687
910.0	0.0002183	11.5
910.0	0.0002183	11.5470001698
910.0	0.0002183	11.5780000687
910.0	0.0002188	11.625
910.0	0.000219	11.6570000648
910.0	0.0002193	11.7030000687
910.0	0.0002195	11.75
920.0	0.0002305	12.0470001698
920.0	0.0002338	12.0940001011
920.0	0.0002365	12.125
920.0	0.000239	12.1720001698
920.0	0.0002413	12.2190001011
920.0	0.0002428	12.25
920.0	0.0002438	12.2970001698
920.0	0.0002445	12.3440001011
920.0	0.0002453	12.375
920.0	0.0002455	12.4220001698
920.0	0.0002455	12.4530000687
920.0	0.0002463	12.5
920.0	0.0002463	12.5470001698
920.0	0.0002463	12.5780000687
920.0	0.0002465	12.625
920.0	0.0002463	12.6720001698
920.0	0.0002458	12.7030000687
920.0	0.0002463	12.75
920.0	0.0002463	12.7970001698
920.0	0.0002463	12.8280000687
920.0	0.0002458	12.875
920.0	0.0002455	12.9070000648
920.0	0.0002455	12.9530000687
920.0	0.0002455	13.0
920.0	0.0002458	13.0320000648
920.0	0.0002463	13.0780000687
920.0	0.0002458	13.125
920.0	0.0002458	13.1570000648
920.0	0.0002458	13.2030000687
920.0	0.0002455	13.2350001335
920.0	0.0002458	13.2820000648
920.0	0.0002458	13.3280000687
920.0	0.0002458	13.3600001335
920.0	0.0002458	13.4070000648
920.0	0.0002458	13.4530000687
920.0	0.0002458	13.4850001335
920.0	0.0002455	13.5320000648
930.0	0.0002563	13.8280000687
930.0	0.0002595	13.875
930.0	0.000262	13.9220001698
930.0	0.0002643	13.9530000687
930.0	0.0002658	14.0
930.0	0.000267	14.0320000648
930.0	0.0002683	14.0780000687
930.0	0.0002693	14.125
930.0	0.00027	14.1570000648
930.0	0.0002705	14.2030000687
930.0	0.0002708	14.25
930.0	0.0002713	14.2820000648
930.0	0.0002715	14.3280000687
930.0	0.0002713	14.3600001335
930.0	0.0002715	14.4070000648
930.0	0.0002715	14.4530000687
930.0	0.0002715	14.4850001335
930.0	0.0002718	14.5320000648
930.0	0.000272	14.5780000687
930.0	0.000272	14.6100001335
930.0	0.000272	14.6570000648
930.0	0.0002718	14.6879999638
930.0	0.0002718	14.7350001335
930.0	0.0002718	14.7820000648
930.0	0.0002715	14.8129999638
930.0	0.0002713	14.8600001335
930.0	0.0002713	14.9070000648
930.0	0.0002713	14.9379999638
930.0	0.0002715	14.9850001335
930.0	0.0002718	15.0160000324
930.0	0.0002715	15.0629999638
930.0	0.0002715	15.1100001335
930.0	0.0002718	15.1410000324
930.0	0.0002715	15.1879999638
930.0	0.0002715	15.2350001335
930.0	0.0002715	15.2660000324
930.0	0.0002715	15.3129999638
940.0	0.0002838	15.6100001335
940.0	0.0002875	15.6570000648
940.0	0.0002903	15.6879999638
940.0	0.0002925	15.7350001335
940.0	0.0002945	15.7820000648
940.0	0.0002958	15.8129999638
940.0	0.0002965	15.8600001335
940.0	0.0002978	15.8910000324
940.0	0.0002983	15.9379999638
940.0	0.0002993	15.9850001335
940.0	0.0003	16.0160000324
940.0	0.0003003	16.0629999638
940.0	0.0003005	16.1100001335
940.0	0.0003013	16.1410000324
940.0	0.0003013	16.1879999638
940.0	0.0003018	16.2190001011
940.0	0.0003018	16.2660000324
940.0	0.000302	16.3129999638
940.0	0.0003025	16.3440001011
940.0	0.0003025	16.3910000324
940.0	0.0003025	16.4379999638
940.0	0.000302	16.4690001011
940.0	0.0003018	16.5160000324
940.0	0.0003015	16.5629999638
940.0	0.0003013	16.5940001011
940.0	0.0003013	16.6410000324
940.0	0.0003015	16.6720001698
940.0	0.0003015	16.7190001011
940.0	0.0003015	16.7660000324
940.0	0.0003015	16.7970001698
940.0	0.0003013	16.8440001011
940.0	0.0003008	16.8910000324
940.0	0.0003008	16.9220001698
940.0	0.0003005	16.9690001011
940.0	0.0003003	17.0
940.0	0.0003003	17.0470001698
940.0	0.0003	17.0940001011
950.0	0.0003113	17.375
950.0	0.000315	17.4220001698
950.0	0.000318	17.4690001011
950.0	0.0003205	17.5
950.0	0.0003228	17.5470001698
950.0	0.000324	17.5940001011
950.0	0.000325	17.625
950.0	0.0003255	17.6720001698
950.0	0.0003263	17.7030000687
950.0	0.0003268	17.75
950.0	0.0003275	17.7970001698
950.0	0.0003275	17.8280000687
950.0	0.0003275	17.875
950.0	0.0003275	17.9220001698
950.0	0.0003275	17.9530000687
950.0	0.0003275	18.0
950.0	0.000328	18.0320000648
950.0	0.000328	18.0780000687
950.0	0.000328	18.125
950.0	0.000328	18.1570000648
950.0	0.000328	18.2030000687
950.0	0.000328	18.25
950.0	0.000328	18.2820000648
950.0	0.0003278	18.3280000687
950.0	0.0003275	18.3600001335
950.0	0.0003275	18.4070000648
950.0	0.0003278	18.4530000687
950.0	0.000328	18.4850001335
950.0	0.0003278	18.5320000648
950.0	0.0003278	18.5780000687
950.0	0.0003278	18.6100001335
950.0	0.000328	18.6570000648
950.0	0.0003283	18.6879999638
950.0	0.0003288	18.7350001335
950.0	0.0003288	18.7820000648
950.0	0.0003288	18.8129999638
950.0	0.0003283	18.8600001335
960.0	0.0003403	19.1410000324
960.0	0.000344	19.1879999638
960.0	0.000347	19.2350001335
960.0	0.00035	19.2660000324
960.0	0.0003518	19.3129999638
960.0	0.0003533	19.3600001335
960.0	0.0003545	19.3910000324
960.0	0.0003558	19.4379999638
960.0	0.0003565	19.4690001011
960.0	0.000357	19.5160000324
960.0	0.0003575	19.5629999638
960.0	0.0003578	19.5940001011
960.0	0.000358	19.6410000324
960.0	0.000358	19.6879999638
960.0	0.0003583	19.7190001011
960.0	0.0003583	19.7660000324
960.0	0.0003583	19.7970001698
960.0	0.0003588	19.8440001011
960.0	0.0003588	19.8910000324
960.0	0.0003588	19.9220001698
960.0	0.0003588	19.9690001011
960.0	0.0003583	20.0160000324
960.0	0.0003583	20.0470001698
960.0	0.0003588	20.0940001011
960.0	0.0003583	20.125
960.0	0.0003578	20.1720001698
960.0	0.0003578	20.2190001011
960.0	0.0003575	20.25
960.0	0.0003575	20.2970001698
960.0	0.0003575	20.3440001011
960.0	0.000358	20.375
960.0	0.000358	20.4220001698
960.0	0.000358	20.4690001011
960.0	0.000358	20.5
960.0	0.0003578	20.5470001698
960.0	0.0003575	20.5780000687
960.0	0.0003575	20.625
970.0	0.0003683	20.9070000648
970.0	0.000372	20.9530000687
970.0	0.0003753	20.9850001335
970.0	0.0003775	21.0320000648
970.0	0.0003793	21.0780000687
970.0	0.0003808	21.1100001335
970.0	0.000382	21.1570000648
970.0	0.0003833	21.2030000687
970.0	0.0003843	21.2350001335
970.0	0.0003845	21.2820000648
970.0	0.000385	21.3280000687
970.0	0.0003845	21.3600001335
970.0	0.000385	21.4070000648
970.0	0.000385	21.4530000687
970.0	0.0003853	21.4850001335
970.0	0.0003853	21.5320000648
970.0	0.0003853	21.5629999638
970.0	0.0003853	21.6100001335
970.0	0.0003855	21.6570000648
970.0	0.0003858	21.6879999638
970.0	0.0003863	21.7350001335
970.0	0.0003863	21.7820000648
970.0	0.0003858	21.8129999638
970.0	0.0003863	21.8600001335
970.0	0.0003863	21.8910000324
970.0	0.0003863	21.9379999638
970.0	0.0003865	21.9850001335
970.0	0.0003868	22.0160000324
970.0	0.0003868	22.0629999638
970.0	0.000387	22.1100001335
970.0	0.000387	22.1410000324
970.0	0.000387	22.1879999638
970.0	0.0003875	22.2350001335
970.0	0.0003878	22.2660000324
970.0	0.0003878	22.3129999638
970.0	0.0003875	22.3440001011
970.0	0.0003868	22.3910000324
980.0	0.000398	22.6720001698
980.0	0.0004025	22.7190001011
980.0	0.0004063	22.75
980.0	0.000409	22.7970001698
980.0	0.0004113	22.8280000687
980.0	0.0004128	22.875
980.0	0.0004138	22.9220001698
980.0	0.0004145	22.9530000687
980.0	0.0004153	23.0
980.0	0.0004153	23.0470001698
980.0	0.0004155	23.0780000687
980.0	0.0004153	23.125
980.0	0.0004153	23.1720001698
980.0	0.0004155	23.2030000687
980.0	0.0004155	23.25
980.0	0.0004155	23.2820000648
980.0	0.0004155	23.3280000687
980.0	0.0004155	23.375
980.0	0.0004153	23.4070000648
980.0	0.0004153	23.4530000687
980.0	0.0004153	23.4850001335
980.0	0.000415	23.5320000648
980.0	0.0004153	23.5780000687
980.0	0.0004153	23.6100001335
980.0	0.0004153	23.6570000648
980.0	0.0004153	23.7030000687
980.0	0.0004155	23.7350001335
980.0	0.0004155	23.7820000648
980.0	0.0004155	23.8280000687
980.0	0.000415	23.8600001335
980.0	0.000415	23.9070000648
980.0	0.0004145	23.9379999638
980.0	0.0004145	23.9850001335
980.0	0.0004143	24.0320000648
980.0	0.000414	24.0629999638
980.0	0.0004143	24.1100001335
980.0	0.0004145	24.1570000648
990.0	0.0004258	24.4220001698
990.0	0.0004293	24.4690001011
990.0	0.0004328	24.5160000324
990.0	0.0004353	24.5470001698
990.0	0.000437	24.5940001011
990.0	0.0004388	24.6410000324
990.0	0.00044	24.6720001698
990.0	0.0004408	24.7190001011
990.0	0.0004418	24.75
990.0	0.0004425	24.7970001698
990.0	0.000443	24.8440001011
990.0	0.0004438	24.875
990.0	0.000444	24.9220001698
990.0	0.000444	24.9690001011
990.0	0.0004443	25.0
990.0	0.0004438	25.0470001698
990.0	0.0004433	25.0940001011
990.0	0.0004438	25.125
990.0	0.0004438	25.1720001698
990.0	0.0004438	25.2030000687
990.0	0.0004438	25.25
990.0	0.0004438	25.2970001698
990.0	0.000444	25.3440001011
990.0	0.000444	25.375
990.0	0.0004443	25.4220001698
990.0	0.0004445	25.4530000687
990.0	0.0004443	25.5
990.0	0.0004445	25.5470001698
990.0	0.000445	25.5780000687
990.0	0.0004445	25.625
990.0	0.0004445	25.6720001698
990.0	0.0004443	25.7030000687
990.0	0.0004443	25.75
990.0	0.0004443	25.7970001698
990.0	0.0004445	25.8280000687
990.0	0.0004443	25.875
990.0	0.0004445	25.9070000648
1000.0	0.0004555	26.1879999638
1000.0	0.0004593	26.2350001335
1000.0	0.000463	26.2660000324
1000.0	0.0004655	26.3129999638
1000.0	0.0004675	26.3600001335
1000.0	0.000469	26.3910000324
1000.0	0.00047	26.4379999638
1000.0	0.0004708	26.4850001335
1000.0	0.0004715	26.5160000324
1000.0	0.0004718	26.5629999638
1000.0	0.000472	26.5940001011
1000.0	0.0004725	26.6410000324
1000.0	0.0004728	26.6879999638
1000.0	0.0004728	26.7190001011
1000.0	0.0004728	26.7660000324
1000.0	0.000473	26.8129999638
1000.0	0.0004733	26.8440001011
1000.0	0.000473	26.8910000324
1000.0	0.0004725	26.9379999638
1000.0	0.000472	26.9690001011
1000.0	0.000472	27.0160000324
1000.0	0.000472	27.0470001698
1000.0	0.0004725	27.0940001011
1000.0	0.0004728	27.1410000324
1000.0	0.000473	27.1720001698
1000.0	0.000473	27.2190001011
1000.0	0.000473	27.2660000324
1000.0	0.000473	27.2970001698
1000.0	0.000473	27.3440001011
1000.0	0.000473	27.375
1000.0	0.0004728	27.4220001698
1000.0	0.0004725	27.4690001011
1000.0	0.0004725	27.5
1000.0	0.0004725	27.5470001698
1000.0	0.0004725	27.5940001011
1000.0	0.0004728	27.625
1000.0	0.0004728	27.6720001698
1010.0	0.0004845	27.9530000687
1010.0	0.0004888	27.9850001335
1010.0	0.000492	28.0320000648
1010.0	0.0004953	28.0780000687
1010.0	0.0004975	28.1100001335
1010.0	0.0004993	28.1570000648
1010.0	0.0005003	28.2030000687
1010.0	0.0005008	28.2350001335
1010.0	0.0005015	28.2820000648
1010.0	0.000502	28.3280000687
1010.0	0.0005025	28.3600001335
1010.0	0.000503	28.4070000648
1010.0	0.0005033	28.4530000687
1010.0	0.000504	28.4850001335
1010.0	0.0005043	28.5320000648
1010.0	0.0005043	28.5629999638
1010.0	0.000504	28.6100001335
1010.0	0.0005038	28.6570000648
1010.0	0.0005038	28.6879999638
1010.0	0.0005038	28.7350001335
1010.0	0.000504	28.7820000648
1010.0	0.000504	28.8129999638
1010.0	0.000504	28.8600001335
1010.0	0.000504	28.8910000324
1010.0	0.0005038	28.9379999638
1010.0	0.000504	28.9850001335
1010.0	0.0005038	29.0320000648
1010.0	0.000504	29.0629999638
1010.0	0.000504	29.1100001335
1010.0	0.0005038	29.1410000324
1010.0	0.0005038	29.1879999638
1010.0	0.0005038	29.2350001335
1010.0	0.0005043	29.2660000324
1010.0	0.0005043	29.3129999638
1010.0	0.000504	29.3600001335
1010.0	0.000504	29.3910000324
1010.0	0.0005038	29.4379999638
1020.0	0.0005138	29.7190001011
1020.0	0.0005175	29.75
1020.0	0.0005205	29.7970001698
1020.0	0.0005233	29.8440001011
1020.0	0.0005258	29.875
1020.0	0.0005278	29.9220001698
1020.0	0.000529	29.9690001011
1020.0	0.00053	30.0
1020.0	0.0005303	30.0470001698
1020.0	0.0005305	30.0780000687
1020.0	0.0005305	30.125
1020.0	0.0005308	30.1720001698
1020.0	0.0005315	30.2030000687
1020.0	0.0005318	30.25
1020.0	0.000532	30.2970001698
1020.0	0.000532	30.3280000687
1020.0	0.000532	30.375
1020.0	0.000532	30.4070000648
1020.0	0.000532	30.4530000687
1020.0	0.0005318	30.5
1020.0	0.0005318	30.5320000648
1020.0	0.0005315	30.5780000687
1020.0	0.0005315	30.625
1020.0	0.0005318	30.6570000648
1020.0	0.0005318	30.7030000687
1020.0	0.000532	30.7350001335
1020.0	0.0005325	30.7820000648
1020.0	0.0005325	30.8280000687
1020.0	0.000532	30.8600001335
1020.0	0.0005318	30.9070000648
1020.0	0.0005315	30.9530000687
1020.0	0.0005318	30.9850001335
1020.0	0.000532	31.0320000648
1020.0	0.0005325	31.0780000687
1020.0	0.0005328	31.1100001335
1020.0	0.000533	31.1570000648
1020.0	0.000533	31.1879999638
1030.0	0.0005455	31.4850001335
1030.0	0.0005493	31.5160000324
1030.0	0.0005528	31.5629999638
1030.0	0.0005555	31.5940001011
1030.0	0.0005578	31.6410000324
1030.0	0.0005593	31.6879999638
1030.0	0.0005605	31.7190001011
1030.0	0.0005615	31.7660000324
1030.0	0.0005618	31.8129999638
1030.0	0.000562	31.8440001011
1030.0	0.0005625	31.8910000324
1030.0	0.0005628	31.9220001698
1030.0	0.0005628	31.9690001011
1030.0	0.000563	32.0160000324
1030.0	0.0005633	32.0470001698
1030.0	0.0005633	32.0940001011
1030.0	0.0005633	32.1410000324
1030.0	0.000563	32.1720001698
1030.0	0.000563	32.2190001011
1030.0	0.0005633	32.2660000324
1030.0	0.0005633	32.2970001698
1030.0	0.0005638	32.3440001011
1030.0	0.0005638	32.3910000324
1030.0	0.0005638	32.4220001698
1030.0	0.0005638	32.4690001011
1030.0	0.0005633	32.5
1030.0	0.0005633	32.5470001698
1030.0	0.0005638	32.5940001011
1030.0	0.0005638	32.625
1030.0	0.0005633	32.6720001698
1030.0	0.0005633	32.7190001011
1030.0	0.000563	32.75
1030.0	0.0005628	32.7970001698
1030.0	0.0005625	32.8440001011
1030.0	0.000562	32.875
1030.0	0.000562	32.9220001698
1030.0	0.000562	32.9530000687
1040.0	0.0005745	33.25
1040.0	0.0005783	33.2820000648
1040.0	0.0005815	33.3280000687
1040.0	0.000584	33.3600001335
1040.0	0.0005863	33.4070000648
1040.0	0.000588	33.4530000687
1040.0	0.0005893	33.5
1040.0	0.0005905	33.5320000648
1040.0	0.0005913	33.5780000687
1040.0	0.0005918	33.6100001335
1040.0	0.000592	33.6570000648
1040.0	0.0005925	33.7030000687
1040.0	0.000593	33.7350001335
1040.0	0.0005933	33.7820000648
1040.0	0.0005933	33.8280000687
1040.0	0.0005933	33.8600001335
1040.0	0.0005933	33.9070000648
1040.0	0.000593	33.9379999638
1040.0	0.000593	33.9850001335
1040.0	0.000593	34.0320000648
1040.0	0.000593	34.0629999638
1040.0	0.000593	34.1100001335
1040.0	0.0005933	34.1570000648
1040.0	0.0005938	34.1879999638
1040.0	0.0005938	34.2350001335
1040.0	0.0005938	34.2660000324
1040.0	0.0005933	34.3129999638
1040.0	0.0005933	34.3600001335
1040.0	0.0005938	34.3910000324
1040.0	0.0005938	34.4379999638
1040.0	0.000594	34.4850001335
1040.0	0.0005938	34.5160000324
1040.0	0.0005938	34.5629999638
1040.0	0.000594	34.6100001335
1040.0	0.000594	34.6410000324
1040.0	0.000594	34.6879999638
1040.0	0.0005943	34.7190001011
1050.0	0.0006058	35.0160000324
1050.0	0.0006103	35.0470001698
1050.0	0.0006133	35.0940001011
1050.0	0.0006163	35.125
1050.0	0.0006183	35.1720001698
1050.0	0.00062	35.2190001011
1050.0	0.0006213	35.25
1050.0	0.0006225	35.2970001698
1050.0	0.000623	35.3440001011
1050.0	0.000624	35.375
1050.0	0.0006245	35.4220001698
1050.0	0.0006245	35.4690001011
1050.0	0.0006245	35.5
1050.0	0.0006245	35.5470001698
1050.0	0.000625	35.5780000687
1050.0	0.000625	35.625
1050.0	0.000625	35.6720001698
1050.0	0.000625	35.7030000687
1050.0	0.0006245	35.75
1050.0	0.0006245	35.7970001698
1050.0	0.000625	35.8280000687
1050.0	0.0006245	35.875
1050.0	0.0006243	35.9070000648
1050.0	0.000624	35.9530000687
1050.0	0.0006233	36.0
1050.0	0.0006238	36.0320000648
1050.0	0.0006238	36.0780000687
1050.0	0.0006238	36.125
1050.0	0.0006238	36.1570000648
1050.0	0.0006233	36.2030000687
1050.0	0.0006233	36.25
1050.0	0.0006238	36.2820000648
1050.0	0.0006238	36.3280000687
1050.0	0.0006238	36.375
1050.0	0.000624	36.4070000648
1050.0	0.0006243	36.4530000687
1050.0	0.0006243	36.4850001335
1060.0	0.000634	36.7820000648
1060.0	0.0006375	36.8129999638
1060.0	0.0006403	36.8600001335
1060.0	0.000643	36.8910000324
1060.0	0.000645	36.9379999638
1060.0	0.0006465	36.9850001335
1060.0	0.0006478	37.0160000324
1060.0	0.0006488	37.0629999638
1060.0	0.0006493	37.1100001335
1060.0	0.0006498	37.1410000324
1060.0	0.0006503	37.1879999638
1060.0	0.0006505	37.2350001335
1060.0	0.000651	37.2660000324
1060.0	0.0006515	37.3129999638
1060.0	0.0006515	37.3440001011
1060.0	0.0006518	37.3910000324
1060.0	0.0006518	37.4379999638
1060.0	0.0006518	37.4690001011
1060.0	0.0006518	37.5160000324
1060.0	0.0006523	37.5629999638
1060.0	0.0006525	37.5940001011
1060.0	0.0006528	37.6410000324
1060.0	0.0006528	37.6720001698
1060.0	0.0006525	37.7190001011
1060.0	0.0006525	37.7660000324
1060.0	0.0006525	37.7970001698
1060.0	0.0006523	37.8440001011
1060.0	0.0006518	37.8910000324
1060.0	0.0006518	37.9220001698
1060.0	0.0006523	37.9690001011
1060.0	0.0006523	38.0160000324
1060.0	0.0006525	38.0470001698
1060.0	0.0006525	38.0940001011
1060.0	0.0006525	38.1410000324
1060.0	0.0006525	38.1720001698
1060.0	0.0006525	38.2190001011
1060.0	0.0006525	38.2660000324
1070.0	0.0006643	38.5470001698
1070.0	0.0006685	38.5780000687
1070.0	0.0006715	38.625
1070.0	0.0006748	38.6720001698
1070.0	0.0006768	38.7030000687
1070.0	0.0006788	38.75
1070.0	0.00068	38.7820000648
1070.0	0.0006805	38.8280000687
1070.0	0.0006815	38.875
1070.0	0.0006818	38.9070000648
1070.0	0.0006818	38.9530000687
1070.0	0.0006825	39.0
1070.0	0.0006825	39.0320000648
1070.0	0.0006825	39.0780000687
1070.0	0.0006828	39.1100001335
1070.0	0.0006825	39.1570000648
1070.0	0.0006825	39.2030000687
1070.0	0.0006828	39.2350001335
1070.0	0.0006828	39.2820000648
1070.0	0.0006828	39.3280000687
1070.0	0.0006828	39.3600001335
1070.0	0.000683	39.4070000648
1070.0	0.000683	39.4379999638
1070.0	0.0006825	39.4850001335
1070.0	0.0006823	39.5320000648
1070.0	0.0006823	39.5629999638
1070.0	0.0006825	39.6100001335
1070.0	0.0006825	39.6570000648
1070.0	0.0006828	39.6879999638
1070.0	0.0006828	39.7350001335
1070.0	0.0006825	39.7660000324
1070.0	0.0006825	39.8129999638
1070.0	0.0006823	39.8600001335
1070.0	0.0006823	39.8910000324
1070.0	0.0006818	39.9379999638
1070.0	0.0006818	39.9850001335
1070.0	0.0006818	40.0320000648
1080.0	0.0006913	40.3129999638
1080.0	0.0006948	40.3600001335
1080.0	0.0006975	40.3910000324
1080.0	0.0007	40.4379999638
1080.0	0.0007023	40.4690001011
1080.0	0.0007035	40.5160000324
1080.0	0.0007043	40.5629999638
1080.0	0.0007053	40.5940001011
1080.0	0.0007055	40.6410000324
1080.0	0.0007063	40.6879999638
1080.0	0.0007063	40.7190001011
1080.0	0.0007065	40.7660000324
1080.0	0.0007065	40.7970001698
1080.0	0.0007065	40.8440001011
1080.0	0.0007068	40.8910000324
1080.0	0.0007068	40.9220001698
1080.0	0.0007068	40.9690001011
1080.0	0.0007065	41.0160000324
1080.0	0.0007065	41.0470001698
1080.0	0.0007063	41.0940001011
1080.0	0.0007063	41.1410000324
1080.0	0.0007065	41.1720001698
1080.0	0.0007065	41.2190001011
1080.0	0.0007073	41.25
1080.0	0.0007073	41.2970001698
1080.0	0.0007073	41.3440001011
1080.0	0.0007075	41.375
1080.0	0.0007073	41.4220001698
1080.0	0.0007075	41.4690001011
1080.0	0.0007078	41.5
1080.0	0.0007078	41.5470001698
1080.0	0.000708	41.5780000687
1080.0	0.000708	41.625
1080.0	0.0007078	41.6720001698
1080.0	0.000708	41.7030000687
1080.0	0.000708	41.75
1080.0	0.0007085	41.7970001698
1090.0	0.0007185	42.0780000687
1090.0	0.0007218	42.1100001335
1090.0	0.000725	42.1570000648
1090.0	0.0007275	42.2030000687
1090.0	0.0007293	42.2350001335
1090.0	0.000731	42.2820000648
1090.0	0.0007318	42.3129999638
1090.0	0.0007328	42.3600001335
1090.0	0.0007338	42.4070000648
1090.0	0.000734	42.4379999638
1090.0	0.000734	42.4850001335
1090.0	0.0007343	42.5320000648
1090.0	0.0007348	42.5629999638
1090.0	0.000735	42.6100001335
1090.0	0.000735	42.6410000324
1090.0	0.0007348	42.6879999638
1090.0	0.0007343	42.7350001335
1090.0	0.0007343	42.7660000324
1090.0	0.0007343	42.8129999638
1090.0	0.0007348	42.8600001335
1090.0	0.0007348	42.8910000324
1090.0	0.0007348	42.9379999638
1090.0	0.0007348	42.9850001335
1090.0	0.0007343	43.0160000324
1090.0	0.000735	43.0629999638
1090.0	0.000735	43.0940001011
1090.0	0.000735	43.1410000324
1090.0	0.0007348	43.1879999638
1090.0	0.000735	43.2190001011
1090.0	0.0007343	43.2660000324
1090.0	0.000734	43.3129999638
1090.0	0.0007335	43.3440001011
1090.0	0.0007335	43.3910000324
1090.0	0.0007335	43.4220001698
1090.0	0.0007335	43.4690001011
1090.0	0.0007335	43.5160000324
1090.0	0.0007335	43.5470001698
1100.0	0.0007425	43.8280000687
1100.0	0.0007455	43.875
1100.0	0.000748	43.9220001698
1100.0	0.0007503	43.9530000687
1100.0	0.0007515	44.0
1100.0	0.0007525	44.0320000648
1100.0	0.0007528	44.0780000687
1100.0	0.0007535	44.125
1100.0	0.000754	44.1570000648
1100.0	0.0007543	44.2030000687
1100.0	0.0007548	44.2350001335
1100.0	0.000755	44.2820000648
1100.0	0.0007555	44.3280000687
1100.0	0.0007555	44.3600001335
1100.0	0.0007555	44.4070000648
1100.0	0.0007553	44.4530000687
1100.0	0.0007553	44.5
1100.0	0.0007553	44.5320000648
1100.0	0.0007553	44.5780000687
1100.0	0.0007553	44.6100001335
1100.0	0.0007553	44.6570000648
1100.0	0.000755	44.7030000687
1100.0	0.000755	44.7350001335
1100.0	0.000755	44.7820000648
1100.0	0.000755	44.8280000687
1100.0	0.0007553	44.8600001335
1100.0	0.0007555	44.9070000648
1100.0	0.000756	44.9379999638
1100.0	0.0007555	44.9850001335
1100.0	0.000756	45.0320000648
1100.0	0.000756	45.0629999638
1100.0	0.0007563	45.1100001335
1100.0	0.0007563	45.1570000648
1100.0	0.0007563	45.1879999638
1100.0	0.0007565	45.2350001335
1100.0	0.000756	45.2660000324
1110.0	0.000764	45.5470001698
1110.0	0.0007668	45.5940001011
1110.0	0.0007693	45.6410000324
1110.0	0.000771	45.6720001698
1110.0	0.0007723	45.7190001011
1110.0	0.0007738	45.75
1110.0	0.0007743	45.7970001698
1110.0	0.000775	45.8440001011
1110.0	0.0007755	45.875
1110.0	0.000776	45.9220001698
1110.0	0.0007765	45.9690001011
1110.0	0.0007773	46.0
1110.0	0.0007773	46.0470001698
1110.0	0.0007775	46.0940001011
1110.0	0.0007775	46.125
1110.0	0.0007775	46.1720001698
1110.0	0.0007778	46.2030000687
1110.0	0.000778	46.25
1110.0	0.000778	46.2970001698
1110.0	0.0007785	46.3280000687
1110.0	0.0007788	46.375
1110.0	0.0007788	46.4220001698
1110.0	0.0007788	46.4530000687
1110.0	0.0007788	46.5
1110.0	0.000779	46.5320000648
1110.0	0.0007798	46.5780000687
1110.0	0.00078	46.625
1110.0	0.00078	46.6570000648
1110.0	0.0007798	46.7030000687
1110.0	0.0007798	46.75
1110.0	0.0007798	46.7820000648
1110.0	0.0007793	46.8280000687
1110.0	0.000779	46.8600001335
1110.0	0.0007788	46.9070000648
1110.0	0.000778	46.9530000687
1110.0	0.000778	46.9850001335
1110.0	0.0007778	47.0320000648
1120.0	0.0007855	47.3129999638
1120.0	0.0007875	47.3440001011
1120.0	0.000789	47.3910000324
1120.0	0.000791	47.4220001698
1120.0	0.0007918	47.4690001011
1120.0	0.0007928	47.5160000324
1120.0	0.0007935	47.5470001698
1120.0	0.0007938	47.5940001011
1120.0	0.0007938	47.6410000324
1120.0	0.000794	47.6720001698
1120.0	0.0007943	47.7190001011
1120.0	0.0007943	47.7660000324
1120.0	0.0007948	47.7970001698
1120.0	0.0007948	47.8440001011
1120.0	0.0007948	47.875
1120.0	0.0007948	47.9220001698
1120.0	0.0007948	47.9690001011
1120.0	0.0007948	48.0
1120.0	0.0007943	48.0470001698
1120.0	0.0007943	48.0940001011
1120.0	0.000795	48.125
1120.0	0.000795	48.1720001698
1120.0	0.0007948	48.2030000687
1120.0	0.0007943	48.25
1120.0	0.000794	48.2970001698
1120.0	0.000794	48.3280000687
1120.0	0.000794	48.375
1120.0	0.0007938	48.4220001698
1120.0	0.0007938	48.4530000687
1120.0	0.0007935	48.5
1120.0	0.0007935	48.5320000648
1120.0	0.0007938	48.5780000687
1120.0	0.0007935	48.625
1120.0	0.0007935	48.6570000648
1120.0	0.0007935	48.7030000687
1120.0	0.0007935	48.75
1120.0	0.0007935	48.7820000648
1130.0	0.000799	49.0629999638
1130.0	0.000801	49.0940001011
1130.0	0.0008028	49.1410000324
1130.0	0.000804	49.1879999638
1130.0	0.0008053	49.2350001335
1130.0	0.0008065	49.2660000324
1130.0	0.0008068	49.3129999638
1130.0	0.0008075	49.3600001335
1130.0	0.0008078	49.3910000324
1130.0	0.000808	49.4379999638
1130.0	0.0008085	49.4690001011
1130.0	0.0008088	49.5160000324
1130.0	0.000809	49.5629999638
1130.0	0.0008093	49.5940001011
1130.0	0.0008093	49.6410000324
1130.0	0.0008098	49.6879999638
1130.0	0.0008103	49.7190001011
1130.0	0.0008103	49.7660000324
1130.0	0.00081	49.7970001698
1130.0	0.0008103	49.8440001011
1130.0	0.0008103	49.8910000324
1130.0	0.00081	49.9220001698
1130.0	0.0008098	49.9690001011
1130.0	0.0008098	50.0160000324
1130.0	0.0008103	50.0470001698
1130.0	0.0008103	50.0940001011
1130.0	0.0008105	50.125
1130.0	0.000811	50.1720001698
1130.0	0.000811	50.2190001011
1130.0	0.000811	50.25
1130.0	0.000811	50.2970001698
1130.0	0.000811	50.3440001011
1130.0	0.000811	50.375
1130.0	0.000811	50.4220001698
1130.0	0.000811	50.4690001011
1130.0	0.000811	50.5
1130.0	0.0008113	50.5470001698
1140.0	0.0008163	50.8129999638
1140.0	0.0008178	50.8600001335
1140.0	0.0008193	50.8910000324
1140.0	0.000821	50.9379999638
1140.0	0.0008218	50.9850001335
1140.0	0.0008228	51.0160000324
1140.0	0.0008238	51.0629999638
1140.0	0.000824	51.0940001011
1140.0	0.0008243	51.1410000324
1140.0	0.0008248	51.1879999638
1140.0	0.0008248	51.2190001011
1140.0	0.0008248	51.2660000324
1140.0	0.0008248	51.3129999638
1140.0	0.0008248	51.3440001011
1140.0	0.000825	51.3910000324
1140.0	0.000825	51.4220001698
1140.0	0.0008253	51.4690001011
1140.0	0.0008255	51.5160000324
1140.0	0.0008255	51.5470001698
1140.0	0.0008255	51.5940001011
1140.0	0.0008253	51.6410000324
1140.0	0.0008253	51.6720001698
1140.0	0.0008255	51.7190001011
1140.0	0.0008255	51.7660000324
1140.0	0.000825	51.7970001698
1140.0	0.000825	51.8440001011
1140.0	0.0008248	51.875
1140.0	0.0008243	51.9220001698
1140.0	0.0008243	51.9690001011
1140.0	0.000824	52.0
1140.0	0.000824	52.0470001698
1140.0	0.000824	52.0940001011
1140.0	0.0008235	52.125
1140.0	0.0008235	52.1720001698
1140.0	0.0008235	52.2030000687
1140.0	0.000823	52.25
1140.0	0.000823	52.2970001698
1150.0	0.0008273	52.5629999638
1150.0	0.0008285	52.5940001011
1150.0	0.00083	52.6410000324
1150.0	0.000831	52.6879999638
1150.0	0.0008313	52.7190001011
1150.0	0.0008315	52.7660000324
1150.0	0.0008318	52.8129999638
1150.0	0.0008323	52.8440001011
1150.0	0.0008328	52.8910000324
1150.0	0.000833	52.9220001698
1150.0	0.0008335	52.9690001011
1150.0	0.000834	53.0160000324
1150.0	0.0008343	53.0470001698
1150.0	0.0008348	53.0940001011
1150.0	0.0008348	53.1410000324
1150.0	0.000835	53.1720001698
1150.0	0.000835	53.2190001011
1150.0	0.0008348	53.2660000324
1150.0	0.0008348	53.2970001698
1150.0	0.0008343	53.3440001011
1150.0	0.000834	53.375
1150.0	0.000834	53.4220001698
1150.0	0.000834	53.4690001011
1150.0	0.000834	53.5
1150.0	0.0008343	53.5470001698
1150.0	0.000834	53.5940001011
1150.0	0.000834	53.625
1150.0	0.000834	53.6720001698
1150.0	0.000834	53.7030000687
1150.0	0.000834	53.75
1150.0	0.0008343	53.7970001698
1150.0	0.0008343	53.8280000687
1150.0	0.0008348	53.875
1150.0	0.0008348	53.9220001698
1150.0	0.000835	53.9530000687
1150.0	0.0008353	54.0
1150.0	0.0008353	54.0320000648
1160.0	0.0008398	54.2970001698
1160.0	0.0008413	54.3440001011
1160.0	0.0008425	54.3910000324
1160.0	0.0008435	54.4220001698
1160.0	0.000844	54.4690001011
1160.0	0.0008448	54.5
1160.0	0.0008455	54.5470001698
1160.0	0.000846	54.5940001011
1160.0	0.000846	54.6410000324
1160.0	0.0008463	54.6720001698
1160.0	0.0008463	54.7190001011
1160.0	0.0008465	54.75
1160.0	0.0008468	54.7970001698
1160.0	0.0008468	54.8440001011
1160.0	0.0008468	54.875
1160.0	0.0008468	54.9220001698
1160.0	0.0008468	54.9690001011
1160.0	0.0008468	55.0
1160.0	0.0008465	55.0470001698
1160.0	0.0008468	55.0780000687
1160.0	0.0008473	55.125
1160.0	0.0008473	55.1720001698
1160.0	0.0008475	55.2030000687
1160.0	0.0008475	55.25
1160.0	0.0008475	55.2970001698
1160.0	0.0008478	55.3280000687
1160.0	0.0008478	55.375
1160.0	0.0008478	55.4220001698
1160.0	0.0008475	55.4530000687
1160.0	0.0008473	55.5
1160.0	0.0008468	55.5320000648
1160.0	0.0008473	55.5780000687
1160.0	0.0008473	55.625
1160.0	0.0008473	55.6570000648
1160.0	0.0008473	55.7030000687
1160.0	0.0008473	55.7350001335
1170.0	0.0008503	56.0
1170.0	0.0008513	56.0470001698
1170.0	0.0008523	56.0780000687
1170.0	0.0008535	56.125
1170.0	0.000854	56.1720001698
1170.0	0.0008548	56.2030000687
1170.0	0.0008555	56.25
1170.0	0.000856	56.2820000648
1170.0	0.0008563	56.3280000687
1170.0	0.0008563	56.375
1170.0	0.0008563	56.4070000648
1170.0	0.0008563	56.4530000687
1170.0	0.0008563	56.5
1170.0	0.000856	56.5320000648
1170.0	0.0008555	56.5780000687
1170.0	0.000856	56.6100001335
1170.0	0.000856	56.6570000648
1170.0	0.0008563	56.7030000687
1170.0	0.000856	56.7350001335
1170.0	0.000856	56.7820000648
1170.0	0.000856	56.8280000687
1170.0	0.0008563	56.8600001335
1170.0	0.0008563	56.9070000648
1170.0	0.0008563	56.9530000687
1170.0	0.0008563	56.9850001335
1170.0	0.0008563	57.0320000648
1170.0	0.000856	57.0629999638
1170.0	0.000856	57.1100001335
1170.0	0.0008563	57.1570000648
1170.0	0.000856	57.2030000687
1170.0	0.0008555	57.2350001335
1170.0	0.0008553	57.2820000648
1170.0	0.0008553	57.3129999638
1170.0	0.0008553	57.3600001335
1170.0	0.0008555	57.4070000648
1170.0	0.0008555	57.4379999638
1170.0	0.0008553	57.4850001335
1180.0	0.0008578	57.75
1180.0	0.000859	57.7820000648
1180.0	0.0008603	57.8280000687
1180.0	0.000861	57.8600001335
1180.0	0.0008615	57.9070000648
1180.0	0.0008625	57.9530000687
1180.0	0.0008628	57.9850001335
1180.0	0.0008635	58.0320000648
1180.0	0.0008638	58.0780000687
1180.0	0.0008635	58.1100001335
1180.0	0.0008638	58.1570000648
1180.0	0.000864	58.1879999638
1180.0	0.000864	58.2350001335
1180.0	0.0008643	58.2820000648
1180.0	0.0008643	58.3129999638
1180.0	0.0008643	58.3600001335
1180.0	0.0008643	58.4070000648
1180.0	0.0008643	58.4379999638
1180.0	0.0008643	58.4850001335
1180.0	0.0008648	58.5160000324
1180.0	0.0008648	58.5629999638
1180.0	0.000865	58.6100001335
1180.0	0.0008648	58.6410000324
1180.0	0.0008643	58.6879999638
1180.0	0.0008643	58.7350001335
1180.0	0.000864	58.7660000324
1180.0	0.0008643	58.8129999638
1180.0	0.0008648	58.8440001011
1180.0	0.0008648	58.8910000324
1180.0	0.000865	58.9379999638
1180.0	0.000865	58.9690001011
1180.0	0.0008648	59.0160000324
1180.0	0.0008648	59.0629999638
1180.0	0.0008643	59.0940001011
1180.0	0.000865	59.1410000324
1180.0	0.0008653	59.1879999638
1180.0	0.0008653	59.2190001011
1190.0	0.0008688	59.4690001011
1190.0	0.00087	59.5160000324
1190.0	0.000871	59.5629999638
1190.0	0.0008723	59.5940001011
1190.0	0.0008728	59.6410000324
1190.0	0.0008735	59.6879999638
1190.0	0.000874	59.7190001011
1190.0	0.0008743	59.7660000324
1190.0	0.0008748	59.7970001698
1190.0	0.0008748	59.8440001011
1190.0	0.000875	59.8910000324
1190.0	0.0008755	59.9220001698
1190.0	0.000876	59.9690001011
1190.0	0.0008763	60.0160000324
1190.0	0.0008763	60.0470001698
1190.0	0.0008765	60.0940001011
1190.0	0.0008768	60.1410000324
1190.0	0.0008768	60.1720001698
1190.0	0.0008765	60.2190001011
1190.0	0.0008765	60.25
1190.0	0.0008765	60.2970001698
1190.0	0.0008765	60.3440001011
1190.0	0.0008765	60.375
1190.0	0.0008768	60.4220001698
1190.0	0.0008773	60.4690001011
1190.0	0.0008773	60.5
1190.0	0.0008775	60.5470001698
1190.0	0.0008775	60.5780000687
1190.0	0.0008778	60.625
1190.0	0.0008778	60.6720001698
1190.0	0.0008778	60.7030000687
1190.0	0.0008778	60.75
1190.0	0.0008775	60.7970001698
1190.0	0.0008775	60.8280000687
1190.0	0.0008775	60.875
1190.0	0.0008775	60.9070000648
1190.0	0.0008775	60.9530000687
1200.0	0.000879	61.2190001011
1200.0	0.0008805	61.2660000324
1200.0	0.0008818	61.2970001698
1200.0	0.0008828	61.3440001011
1200.0	0.0008838	61.375
1200.0	0.0008848	61.4220001698
1200.0	0.000885	61.4690001011
1200.0	0.0008853	61.5
1200.0	0.0008853	61.5470001698
1200.0	0.0008853	61.5940001011
1200.0	0.0008853	61.625
1200.0	0.000886	61.6720001698
1200.0	0.0008855	61.7030000687
1200.0	0.000886	61.75
1200.0	0.000886	61.7970001698
1200.0	0.000886	61.8280000687
1200.0	0.0008863	61.875
1200.0	0.000886	61.9220001698
1200.0	0.0008863	61.9530000687
1200.0	0.0008863	62.0
1200.0	0.0008863	62.0320000648
1200.0	0.000886	62.0780000687
1200.0	0.0008863	62.125
1200.0	0.000886	62.1570000648
1200.0	0.000886	62.2030000687
1200.0	0.0008855	62.25
1200.0	0.0008853	62.2820000648
1200.0	0.000885	62.3280000687
1200.0	0.000885	62.3600001335
1200.0	0.0008853	62.4070000648
1200.0	0.000885	62.4530000687
1200.0	0.000885	62.4850001335
1200.0	0.0008848	62.5320000648
1200.0	0.0008848	62.5780000687
1200.0	0.0008848	62.6100001335
1200.0	0.0008843	62.6570000648
1200.0	0.000884	62.7030000687
1210.0	0.0008878	62.9530000687
1210.0	0.0008893	63.0
1210.0	0.000891	63.0470001698
1210.0	0.0008923	63.0780000687
1210.0	0.0008928	63.125
1210.0	0.0008935	63.1720001698
1210.0	0.0008935	63.2030000687
1210.0	0.0008938	63.25
1210.0	0.0008938	63.2820000648
1210.0	0.0008943	63.3280000687
1210.0	0.0008943	63.375
1210.0	0.0008948	63.4070000648
1210.0	0.0008948	63.4530000687
1210.0	0.0008948	63.5
1210.0	0.0008948	63.5320000648
1210.0	0.0008948	63.5780000687
1210.0	0.0008948	63.6100001335
1210.0	0.0008948	63.6570000648
1210.0	0.000895	63.7030000687
1210.0	0.0008948	63.7350001335
1210.0	0.000895	63.7820000648
1210.0	0.0008953	63.8280000687
1210.0	0.0008953	63.8600001335
1210.0	0.0008955	63.9070000648
1210.0	0.0008953	63.9379999638
1210.0	0.0008953	63.9850001335
1210.0	0.0008953	64.0320000648
1210.0	0.000895	64.0629999638
1210.0	0.0008953	64.1100001335
1210.0	0.0008955	64.1570000648
1210.0	0.0008955	64.1879999638
1210.0	0.000896	64.2350001335
1210.0	0.000896	64.2660000324
1210.0	0.000896	64.3129999638
1210.0	0.000896	64.3600001335
1210.0	0.000896	64.3910000324
1210.0	0.000896	64.4379999638
1220.0	0.0009005	64.7030000687
1220.0	0.0009018	64.75
1220.0	0.0009035	64.7820000648
1220.0	0.0009048	64.8280000687
1220.0	0.0009055	64.875
1220.0	0.0009063	64.9070000648
1220.0	0.0009068	64.9530000687
1220.0	0.0009073	65.0
1220.0	0.000908	65.0320000648
1220.0	0.000908	65.0780000687
1220.0	0.0009085	65.125
1220.0	0.000908	65.1570000648
1220.0	0.0009078	65.2030000687
1220.0	0.0009078	65.25
1220.0	0.000908	65.2820000648
1220.0	0.000908	65.3280000687
1220.0	0.000908	65.375
1220.0	0.000908	65.4070000648
1220.0	0.0009085	65.4530000687
1220.0	0.0009088	65.5
1220.0	0.0009088	65.5320000648
1220.0	0.0009088	65.5780000687
1220.0	0.000909	65.6100001335
1220.0	0.000909	65.6570000648
1220.0	0.0009093	65.7030000687
1220.0	0.0009093	65.7350001335
1220.0	0.0009093	65.7820000648
1220.0	0.000909	65.8280000687
1220.0	0.000909	65.8600001335
1220.0	0.000909	65.9070000648
1220.0	0.000909	65.9530000687
1220.0	0.0009088	65.9850001335
1220.0	0.0009085	66.0320000648
1220.0	0.0009085	66.0780000687
1220.0	0.000908	66.1100001335
1220.0	0.0009078	66.1570000648
1230.0	0.0009128	66.4220001698
1230.0	0.000914	66.4690001011
1230.0	0.000915	66.5
1230.0	0.000916	66.5470001698
1230.0	0.0009165	66.5940001011
1230.0	0.0009175	66.625
1230.0	0.0009178	66.6720001698
1230.0	0.0009185	66.7190001011
1230.0	0.0009185	66.75
1230.0	0.0009185	66.7970001698
1230.0	0.0009188	66.8440001011
1230.0	0.0009188	66.875
1230.0	0.000919	66.9220001698
1230.0	0.000919	66.9530000687
1230.0	0.000919	67.0
1230.0	0.0009188	67.0470001698
1230.0	0.0009185	67.0780000687
1230.0	0.000918	67.125
1230.0	0.0009178	67.1720001698
1230.0	0.0009178	67.2030000687
1230.0	0.0009178	67.25
1230.0	0.0009178	67.2820000648
1230.0	0.0009175	67.3280000687
1230.0	0.0009173	67.375
1230.0	0.0009175	67.4070000648
1230.0	0.0009173	67.4530000687
1230.0	0.0009168	67.5
1230.0	0.0009163	67.5320000648
1230.0	0.000916	67.5780000687
1230.0	0.000916	67.6100001335
1230.0	0.0009163	67.6570000648
1230.0	0.0009163	67.7030000687
1230.0	0.0009165	67.7350001335
1230.0	0.0009165	67.7820000648
1230.0	0.0009165	67.8280000687
1230.0	0.0009168	67.8600001335
1230.0	0.0009165	67.9070000648
1240.0	0.0009205	68.1720001698
1240.0	0.0009225	68.2190001011
1240.0	0.0009238	68.25
1240.0	0.0009248	68.2970001698
1240.0	0.0009253	68.3440001011
1240.0	0.000926	68.375
1240.0	0.0009265	68.4220001698
1240.0	0.0009268	68.4690001011
1240.0	0.0009273	68.5
1240.0	0.0009275	68.5470001698
1240.0	0.0009275	68.5780000687
1240.0	0.0009278	68.625
1240.0	0.0009278	68.6720001698
1240.0	0.0009278	68.7030000687
1240.0	0.0009278	68.75
1240.0	0.0009285	68.7970001698
1240.0	0.0009288	68.8280000687
1240.0	0.0009293	68.875
1240.0	0.0009298	68.9220001698
1240.0	0.0009298	68.9530000687
1240.0	0.0009298	69.0
1240.0	0.0009298	69.0320000648
1240.0	0.0009298	69.0780000687
1240.0	0.0009298	69.125
1240.0	0.00093	69.1570000648
1240.0	0.00093	69.2030000687
1240.0	0.00093	69.25
1240.0	0.00093	69.2820000648
1240.0	0.00093	69.3280000687
1240.0	0.0009298	69.375
1240.0	0.0009298	69.4070000648
1240.0	0.00093	69.4530000687
1240.0	0.0009303	69.5
1240.0	0.0009305	69.5320000648
1240.0	0.000931	69.5780000687
1240.0	0.000931	69.6100001335
1250.0	0.0009348	69.8910000324
1250.0	0.0009363	69.9220001698
1250.0	0.0009373	69.9690001011
1250.0	0.0009385	70.0160000324
1250.0	0.000939	70.0470001698
1250.0	0.00094	70.0940001011
1250.0	0.0009405	70.1410000324
1250.0	0.000941	70.1720001698
1250.0	0.0009413	70.2190001011
1250.0	0.0009415	70.2660000324
1250.0	0.0009415	70.2970001698
1250.0	0.0009418	70.3440001011
1250.0	0.0009418	70.375
1250.0	0.0009423	70.4220001698
1250.0	0.0009423	70.4690001011
1250.0	0.0009423	70.5
1250.0	0.0009423	70.5470001698
1250.0	0.0009425	70.5940001011
1250.0	0.0009425	70.625
1250.0	0.0009428	70.6720001698
1250.0	0.0009423	70.7030000687
1250.0	0.0009423	70.75
1250.0	0.0009423	70.7970001698
1250.0	0.0009418	70.8280000687
1250.0	0.0009423	70.875
1250.0	0.0009425	70.9220001698
1250.0	0.0009425	70.9530000687
1250.0	0.0009418	71.0
1250.0	0.0009418	71.0470001698
1250.0	0.000941	71.0780000687
1250.0	0.000941	71.125
1250.0	0.0009405	71.1720001698
1250.0	0.0009405	71.2030000687
1250.0	0.0009405	71.25
1250.0	0.0009403	71.2820000648
1250.0	0.0009403	71.3280000687
1250.0	0.0009398	71.375
1260.0	0.0009428	71.6410000324
1260.0	0.0009443	71.6879999638
1260.0	0.0009453	71.7190001011
1260.0	0.000946	71.7660000324
1260.0	0.0009468	71.8129999638
1260.0	0.0009473	71.8440001011
1260.0	0.0009475	71.8910000324
1260.0	0.0009478	71.9220001698
1260.0	0.000948	71.9690001011
1260.0	0.0009488	72.0160000324
1260.0	0.0009488	72.0470001698
1260.0	0.0009485	72.0940001011
1260.0	0.0009485	72.1410000324
1260.0	0.0009485	72.1720001698
1260.0	0.0009485	72.2190001011
1260.0	0.0009485	72.25
1260.0	0.0009485	72.2970001698
1260.0	0.0009485	72.3440001011
1260.0	0.0009485	72.375
1260.0	0.0009488	72.4220001698
1260.0	0.0009488	72.4690001011
1260.0	0.0009488	72.5
1260.0	0.000948	72.5470001698
1260.0	0.0009485	72.5940001011
1260.0	0.0009485	72.625
1260.0	0.0009485	72.6720001698
1260.0	0.0009488	72.7030000687
1260.0	0.0009488	72.75
1260.0	0.000949	72.7970001698
1260.0	0.000949	72.8280000687
1260.0	0.0009488	72.875
1260.0	0.0009488	72.9220001698
1260.0	0.000949	72.9530000687
1260.0	0.000949	73.0
1260.0	0.0009493	73.0320000648
1260.0	0.000949	73.0780000687
1260.0	0.000949	73.125
1270.0	0.0009523	73.3910000324
1270.0	0.0009535	73.4220001698
1270.0	0.0009543	73.4690001011
1270.0	0.0009553	73.5160000324
1270.0	0.000956	73.5470001698
1270.0	0.0009568	73.5940001011
1270.0	0.0009573	73.6410000324
1270.0	0.0009573	73.6720001698
1270.0	0.0009575	73.7190001011
1270.0	0.0009578	73.75
1270.0	0.000958	73.7970001698
1270.0	0.0009585	73.8440001011
1270.0	0.0009585	73.875
1270.0	0.000958	73.9220001698
1270.0	0.0009585	73.9690001011
1270.0	0.0009588	74.0
1270.0	0.000959	74.0470001698
1270.0	0.0009593	74.0780000687
1270.0	0.0009593	74.125
1270.0	0.0009598	74.1720001698
1270.0	0.0009598	74.2030000687
1270.0	0.0009598	74.25
1270.0	0.0009598	74.2970001698
1270.0	0.0009598	74.3280000687
1270.0	0.0009598	74.375
1270.0	0.0009598	74.4220001698
1270.0	0.0009593	74.4530000687
1270.0	0.0009598	74.5
1270.0	0.0009598	74.5470001698
1270.0	0.0009598	74.5780000687
1270.0	0.00096	74.625
1270.0	0.0009598	74.6720001698
1270.0	0.00096	74.7030000687
1270.0	0.00096	74.75
1270.0	0.00096	74.7820000648
1270.0	0.00096	74.8280000687
1270.0	0.0009598	74.875
1280.0	0.0009605	75.1410000324
1280.0	0.000961	75.1720001698
1280.0	0.0009615	75.2190001011
1280.0	0.0009623	75.2660000324
1280.0	0.0009628	75.2970001698
1280.0	0.000963	75.3440001011
1280.0	0.0009635	75.3910000324
1280.0	0.0009638	75.4220001698
1280.0	0.0009635	75.4690001011
1280.0	0.0009635	75.5
1280.0	0.0009635	75.5470001698
1280.0	0.0009635	75.5940001011
1280.0	0.0009635	75.625
1280.0	0.0009635	75.6720001698
1280.0	0.0009628	75.7190001011
1280.0	0.0009628	75.75
1280.0	0.0009625	75.7970001698
1280.0	0.0009628	75.8280000687
1280.0	0.000963	75.875
1280.0	0.000963	75.9220001698
1280.0	0.000963	75.9530000687
1280.0	0.0009628	76.0
1280.0	0.0009628	76.0470001698
1280.0	0.000963	76.0780000687
1280.0	0.0009628	76.125
1280.0	0.0009625	76.1720001698
1280.0	0.0009628	76.2030000687
1280.0	0.0009625	76.25
1280.0	0.0009625	76.2820000648
1280.0	0.0009623	76.3280000687
1280.0	0.0009618	76.375
1280.0	0.0009613	76.4070000648
1280.0	0.000961	76.4530000687
1280.0	0.000961	76.4850001335
1280.0	0.000961	76.5320000648
1280.0	0.000961	76.5780000687
1280.0	0.0009613	76.6100001335
1290.0	0.000963	76.875
1290.0	0.000963	76.9220001698
1290.0	0.000963	76.9690001011
1290.0	0.0009635	77.0
1290.0	0.0009635	77.0470001698
1290.0	0.0009635	77.0940001011
1290.0	0.000963	77.125
1290.0	0.0009628	77.1720001698
1290.0	0.000963	77.2190001011
1290.0	0.000963	77.25
1290.0	0.0009635	77.2970001698
1290.0	0.0009635	77.3280000687
1290.0	0.000963	77.375
1290.0	0.000963	77.4220001698
1290.0	0.0009635	77.4530000687
1290.0	0.0009635	77.5
1290.0	0.0009635	77.5470001698
1290.0	0.0009638	77.5780000687
1290.0	0.0009638	77.625
1290.0	0.0009638	77.6570000648
1290.0	0.0009635	77.7030000687
1290.0	0.0009635	77.75
1290.0	0.0009638	77.7820000648
1290.0	0.0009638	77.8280000687
1290.0	0.0009638	77.875
1290.0	0.0009638	77.9070000648
1290.0	0.0009638	77.9530000687
1290.0	0.000964	77.9850001335
1290.0	0.0009643	78.0320000648
1290.0	0.0009648	78.0780000687
1290.0	0.0009648	78.1100001335
1290.0	0.000965	78.1570000648
1290.0	0.000965	78.2030000687
1290.0	0.000965	78.2350001335
1290.0	0.0009653	78.2820000648
1290.0	0.0009653	78.3280000687
1300.0	0.0009643	78.5940001011
1300.0	0.0009643	78.625
1300.0	0.0009643	78.6720001698
1300.0	0.0009643	78.7030000687
1300.0	0.0009643	78.75
1300.0	0.0009643	78.7970001698
1300.0	0.000964	78.8280000687
1300.0	0.0009638	78.875
1300.0	0.000964	78.9220001698
1300.0	0.000964	78.9530000687
1300.0	0.000964	79.0
1300.0	0.000964	79.0470001698
1300.0	0.000964	79.0780000687
1300.0	0.0009643	79.125
1300.0	0.000964	79.1570000648
1300.0	0.000964	79.2030000687
1300.0	0.000964	79.25
1300.0	0.000964	79.2820000648
1300.0	0.0009643	79.3280000687
1300.0	0.0009648	79.3600001335
1300.0	0.0009648	79.4070000648
1300.0	0.0009648	79.4530000687
1300.0	0.0009648	79.4850001335
1300.0	0.0009648	79.5320000648
1300.0	0.000965	79.5780000687
1300.0	0.0009653	79.6100001335
1300.0	0.0009653	79.6570000648
1300.0	0.0009653	79.7030000687
1300.0	0.0009653	79.7350001335
1300.0	0.0009653	79.7820000648
1300.0	0.0009653	79.8129999638
1300.0	0.000965	79.8600001335
1300.0	0.000965	79.9070000648
1300.0	0.000965	79.9379999638
1300.0	0.0009643	79.9850001335
1300.0	0.0009643	80.0320000648
1300.0	0.0009643	80.0629999638
1310.0	0.0009618	80.3280000687
1310.0	0.000961	80.375
1310.0	0.00096	80.4070000648
1310.0	0.0009593	80.4530000687
1310.0	0.0009588	80.4850001335
1310.0	0.0009585	80.5320000648
1310.0	0.0009585	80.5780000687
1310.0	0.0009578	80.6100001335
1310.0	0.0009575	80.6570000648
1310.0	0.0009575	80.7030000687
1310.0	0.0009578	80.7350001335
1310.0	0.0009578	80.7820000648
1310.0	0.000958	80.8280000687
1310.0	0.000958	80.8600001335
1310.0	0.0009578	80.9070000648
1310.0	0.0009578	80.9379999638
1310.0	0.0009578	80.9850001335
1310.0	0.0009578	81.0320000648
1310.0	0.0009575	81.0629999638
1310.0	0.0009575	81.1100001335
1310.0	0.0009578	81.1570000648
1310.0	0.0009578	81.1879999638
1310.0	0.0009578	81.2350001335
1310.0	0.0009578	81.2660000324
1310.0	0.000958	81.3129999638
1310.0	0.000958	81.3600001335
1310.0	0.0009585	81.3910000324
1310.0	0.0009578	81.4379999638
1310.0	0.0009578	81.4850001335
1310.0	0.0009578	81.5160000324
1310.0	0.0009578	81.5629999638
1310.0	0.0009578	81.6100001335
1310.0	0.000958	81.6410000324
1310.0	0.0009578	81.6879999638
1310.0	0.000958	81.7190001011
1310.0	0.0009578	81.7660000324
1310.0	0.0009578	81.8129999638
1320.0	0.000953	82.0629999638
1320.0	0.0009515	82.1100001335
1320.0	0.0009498	82.1570000648
1320.0	0.0009488	82.1879999638
1320.0	0.0009478	82.2350001335
1320.0	0.0009473	82.2820000648
1320.0	0.0009468	82.3129999638
1320.0	0.0009463	82.3600001335
1320.0	0.000946	82.3910000324
1320.0	0.000946	82.4379999638
1320.0	0.0009453	82.4850001335
1320.0	0.0009453	82.5160000324
1320.0	0.0009455	82.5629999638
1320.0	0.0009455	82.6100001335
1320.0	0.0009453	82.6570000648
1320.0	0.0009453	82.6879999638
1320.0	0.0009455	82.7350001335
1320.0	0.000946	82.7660000324
1320.0	0.0009453	82.8129999638
1320.0	0.000945	82.8600001335
1320.0	0.0009448	82.8910000324
1320.0	0.0009448	82.9379999638
1320.0	0.0009443	82.9850001335
1320.0	0.0009443	83.0160000324
1320.0	0.0009443	83.0629999638
1320.0	0.000944	83.0940001011
1320.0	0.000944	83.1410000324
1320.0	0.0009443	83.1879999638
1320.0	0.000944	83.2190001011
1320.0	0.000944	83.2660000324
1320.0	0.0009438	83.3129999638
1320.0	0.0009438	83.3440001011
1320.0	0.0009435	83.3910000324
1320.0	0.000944	83.4220001698
1320.0	0.000944	83.4690001011
1320.0	0.0009443	83.5160000324
1320.0	0.0009443	83.5470001698
1330.0	0.000938	83.8129999638
1330.0	0.0009355	83.8600001335
1330.0	0.0009335	83.8910000324
1330.0	0.0009318	83.9379999638
1330.0	0.0009303	83.9850001335
1330.0	0.000929	84.0160000324
1330.0	0.0009285	84.0629999638
1330.0	0.0009278	84.1100001335
1330.0	0.0009273	84.1410000324
1330.0	0.0009265	84.1879999638
1330.0	0.0009265	84.2350001335
1330.0	0.0009265	84.2660000324
1330.0	0.0009273	84.3129999638
1330.0	0.0009273	84.3600001335
1330.0	0.0009273	84.3910000324
1330.0	0.0009268	84.4379999638
1330.0	0.0009265	84.4690001011
1330.0	0.0009268	84.5160000324
1330.0	0.0009265	84.5629999638
1330.0	0.0009265	84.5940001011
1330.0	0.0009265	84.6410000324
1330.0	0.0009265	84.6879999638
1330.0	0.0009268	84.7190001011
1330.0	0.0009273	84.7660000324
1330.0	0.0009273	84.8129999638
1330.0	0.0009273	84.8440001011
1330.0	0.0009275	84.8910000324
1330.0	0.0009273	84.9220001698
1330.0	0.0009273	84.9690001011
1330.0	0.0009273	85.0160000324
1330.0	0.0009268	85.0470001698
1330.0	0.0009268	85.0940001011
1330.0	0.0009273	85.1410000324
1330.0	0.0009275	85.1720001698
1330.0	0.0009275	85.2190001011
1330.0	0.0009273	85.25
1330.0	0.0009275	85.2970001698
1340.0	0.000918	85.5629999638
1340.0	0.0009153	85.6100001335
1340.0	0.0009128	85.6410000324
1340.0	0.000911	85.6879999638
1340.0	0.000909	85.7190001011
1340.0	0.0009078	85.7660000324
1340.0	0.0009065	85.8129999638
1340.0	0.000906	85.8440001011
1340.0	0.0009053	85.8910000324
1340.0	0.000905	85.9379999638
1340.0	0.0009048	85.9690001011
1340.0	0.0009048	86.0160000324
1340.0	0.0009043	86.0470001698
1340.0	0.0009043	86.0940001011
1340.0	0.0009043	86.1410000324
1340.0	0.0009048	86.1720001698
1340.0	0.0009048	86.2190001011
1340.0	0.000905	86.2660000324
1340.0	0.0009048	86.2970001698
1340.0	0.0009048	86.3440001011
1340.0	0.0009043	86.375
1340.0	0.000904	86.4220001698
1340.0	0.000904	86.4690001011
1340.0	0.0009043	86.5
1340.0	0.0009043	86.5470001698
1340.0	0.000904	86.5940001011
1340.0	0.000904	86.625
1340.0	0.000904	86.6720001698
1340.0	0.000904	86.7190001011
1340.0	0.0009043	86.75
1340.0	0.0009043	86.7970001698
1340.0	0.0009043	86.8280000687
1340.0	0.0009043	86.875
1340.0	0.000905	86.9220001698
1340.0	0.0009048	86.9530000687
1340.0	0.000905	87.0
1340.0	0.0009048	87.0470001698
1350.0	0.0008953	87.2970001698
1350.0	0.000891	87.3440001011
1350.0	0.0008875	87.3910000324
1350.0	0.0008848	87.4220001698
1350.0	0.0008828	87.4690001011
1350.0	0.0008805	87.5160000324
1350.0	0.0008793	87.5470001698
1350.0	0.0008785	87.5940001011
1350.0	0.0008778	87.625
1350.0	0.0008775	87.6720001698
1350.0	0.0008775	87.7190001011
1350.0	0.0008775	87.75
1350.0	0.0008773	87.7970001698
1350.0	0.0008765	87.8440001011
1350.0	0.0008763	87.875
1350.0	0.0008763	87.9220001698
1350.0	0.000876	87.9530000687
1350.0	0.000876	88.0
1350.0	0.0008763	88.0470001698
1350.0	0.000876	88.0780000687
1350.0	0.0008753	88.125
1350.0	0.0008753	88.1720001698
1350.0	0.0008755	88.2030000687
1350.0	0.000876	88.25
1350.0	0.000876	88.2970001698
1350.0	0.0008765	88.3280000687
1350.0	0.0008768	88.375
1350.0	0.0008765	88.4220001698
1350.0	0.0008765	88.4530000687
1350.0	0.0008768	88.5
1350.0	0.0008768	88.5470001698
1350.0	0.0008775	88.5780000687
1350.0	0.0008778	88.625
1350.0	0.0008778	88.6570000648
1350.0	0.000878	88.7030000687
1350.0	0.0008778	88.75
1350.0	0.0008778	88.7820000648
1360.0	0.0008663	89.0470001698
1360.0	0.0008618	89.0940001011
1360.0	0.000858	89.125
1360.0	0.0008553	89.1720001698
1360.0	0.0008528	89.2190001011
1360.0	0.0008513	89.25
1360.0	0.00085	89.2970001698
1360.0	0.000849	89.3280000687
1360.0	0.0008485	89.375
1360.0	0.000848	89.4220001698
1360.0	0.0008475	89.4530000687
1360.0	0.0008473	89.5
1360.0	0.0008465	89.5470001698
1360.0	0.0008463	89.5780000687
1360.0	0.000846	89.625
1360.0	0.0008453	89.6720001698
1360.0	0.0008453	89.7030000687
1360.0	0.0008453	89.75
1360.0	0.0008453	89.7820000648
1360.0	0.000845	89.8280000687
1360.0	0.0008453	89.875
1360.0	0.0008453	89.9070000648
1360.0	0.000846	89.9530000687
1360.0	0.000846	89.9850001335
1360.0	0.000846	90.0320000648
1360.0	0.0008455	90.0780000687
1360.0	0.000846	90.1100001335
1360.0	0.000846	90.1570000648
1360.0	0.000846	90.2030000687
1360.0	0.0008463	90.2350001335
1360.0	0.000846	90.2820000648
1360.0	0.0008463	90.3280000687
1360.0	0.0008463	90.3600001335
1360.0	0.0008465	90.4070000648
1360.0	0.0008465	90.4379999638
1360.0	0.0008465	90.4850001335
1360.0	0.0008465	90.5320000648
1370.0	0.0008353	90.7970001698
1370.0	0.000831	90.8280000687
1370.0	0.0008273	90.875
1370.0	0.0008243	90.9070000648
1370.0	0.0008223	90.9530000687
1370.0	0.0008205	91.0
1370.0	0.000819	91.0320000648
1370.0	0.000818	91.0780000687
1370.0	0.0008168	91.125
1370.0	0.000816	91.1570000648
1370.0	0.0008153	91.2030000687
1370.0	0.000815	91.2350001335
1370.0	0.000815	91.2820000648
1370.0	0.000815	91.3280000687
1370.0	0.0008148	91.375
1370.0	0.0008148	91.4070000648
1370.0	0.0008148	91.4530000687
1370.0	0.0008148	91.4850001335
1370.0	0.000815	91.5320000648
1370.0	0.000815	91.5780000687
1370.0	0.000815	91.6100001335
1370.0	0.0008153	91.6570000648
1370.0	0.000815	91.7030000687
1370.0	0.0008153	91.7350001335
1370.0	0.000815	91.7820000648
1370.0	0.0008148	91.8129999638
1370.0	0.0008148	91.8600001335
1370.0	0.0008148	91.9070000648
1370.0	0.0008148	91.9379999638
1370.0	0.0008148	91.9850001335
1370.0	0.0008148	92.0320000648
1370.0	0.000815	92.0780000687
1370.0	0.000815	92.1100001335
1370.0	0.0008153	92.1570000648
1370.0	0.0008153	92.1879999638
1370.0	0.0008148	92.2350001335
1370.0	0.0008148	92.2820000648
1380.0	0.0008038	92.5470001698
1380.0	0.0007998	92.5780000687
1380.0	0.0007963	92.625
1380.0	0.0007935	92.6570000648
1380.0	0.0007913	92.7030000687
1380.0	0.0007893	92.75
1380.0	0.0007878	92.7820000648
1380.0	0.0007865	92.8280000687
1380.0	0.0007863	92.875
1380.0	0.0007853	92.9070000648
1380.0	0.000785	92.9530000687
1380.0	0.0007843	92.9850001335
1380.0	0.000784	93.0320000648
1380.0	0.0007843	93.0780000687
1380.0	0.0007843	93.1100001335
1380.0	0.0007843	93.1570000648
1380.0	0.000784	93.2030000687
1380.0	0.0007838	93.2350001335
1380.0	0.0007838	93.2820000648
1380.0	0.0007838	93.3129999638
1380.0	0.0007838	93.3600001335
1380.0	0.0007838	93.4070000648
1380.0	0.000784	93.4379999638
1380.0	0.000784	93.4850001335
1380.0	0.0007838	93.5320000648
1380.0	0.0007835	93.5629999638
1380.0	0.000783	93.6100001335
1380.0	0.0007828	93.6410000324
1380.0	0.0007825	93.6879999638
1380.0	0.0007823	93.7350001335
1380.0	0.0007823	93.7660000324
1380.0	0.0007823	93.8129999638
1380.0	0.0007823	93.8600001335
1380.0	0.0007823	93.8910000324
1380.0	0.0007825	93.9379999638
1380.0	0.0007828	93.9690001011
1380.0	0.000783	94.0160000324
1390.0	0.0007735	94.2820000648
1390.0	0.0007693	94.3280000687
1390.0	0.000766	94.3600001335
1390.0	0.000763	94.4070000648
1390.0	0.0007613	94.4379999638
1390.0	0.0007598	94.4850001335
1390.0	0.0007585	94.5320000648
1390.0	0.0007578	94.5629999638
1390.0	0.0007568	94.6100001335
1390.0	0.0007565	94.6570000648
1390.0	0.0007563	94.6879999638
1390.0	0.000756	94.7350001335
1390.0	0.000756	94.7660000324
1390.0	0.0007555	94.8129999638
1390.0	0.0007555	94.8600001335
1390.0	0.0007553	94.8910000324
1390.0	0.000755	94.9379999638
1390.0	0.000755	94.9850001335
1390.0	0.0007548	95.0160000324
1390.0	0.0007543	95.0629999638
1390.0	0.0007543	95.1100001335
1390.0	0.0007543	95.1410000324
1390.0	0.0007543	95.1879999638
1390.0	0.0007543	95.2350001335
1390.0	0.0007548	95.2660000324
1390.0	0.0007543	95.3129999638
1390.0	0.0007543	95.3600001335
1390.0	0.000754	95.3910000324
1390.0	0.000754	95.4379999638
1390.0	0.0007543	95.4690001011
1390.0	0.0007543	95.5160000324
1390.0	0.0007543	95.5629999638
1390.0	0.0007548	95.5940001011
1390.0	0.0007543	95.6410000324
1390.0	0.0007548	95.6879999638
1390.0	0.0007548	95.7190001011
1390.0	0.0007548	95.7660000324
1400.0	0.0007468	96.0320000648
1400.0	0.0007438	96.0780000687
1400.0	0.000741	96.1100001335
1400.0	0.000739	96.1570000648
1400.0	0.0007373	96.2030000687
1400.0	0.000736	96.2350001335
1400.0	0.0007348	96.2820000648
1400.0	0.0007338	96.3280000687
1400.0	0.000733	96.3600001335
1400.0	0.0007328	96.4070000648
1400.0	0.0007323	96.4379999638
1400.0	0.0007323	96.4850001335
1400.0	0.0007318	96.5320000648
1400.0	0.0007318	96.5629999638
1400.0	0.0007318	96.6100001335
1400.0	0.0007323	96.6570000648
1400.0	0.0007323	96.6879999638
1400.0	0.0007325	96.7350001335
1400.0	0.0007323	96.7820000648
1400.0	0.0007323	96.8129999638
1400.0	0.0007323	96.8600001335
1400.0	0.0007318	96.8910000324
1400.0	0.0007318	96.9379999638
1400.0	0.0007315	96.9850001335
1400.0	0.0007323	97.0160000324
1400.0	0.0007323	97.0629999638
1400.0	0.0007325	97.1100001335
1400.0	0.0007323	97.1410000324
1400.0	0.0007323	97.1879999638
1400.0	0.0007323	97.2190001011
1400.0	0.0007323	97.2660000324
1400.0	0.0007325	97.3129999638
1400.0	0.0007325	97.3440001011
1400.0	0.0007328	97.3910000324
1400.0	0.0007328	97.4379999638
1400.0	0.0007325	97.4690001011
1400.0	0.0007328	97.5160000324
1410.0	0.0007255	97.7820000648
1410.0	0.000723	97.8280000687
1410.0	0.0007213	97.8600001335
1410.0	0.0007193	97.9070000648
1410.0	0.0007178	97.9379999638
1410.0	0.0007173	97.9850001335
1410.0	0.0007165	98.0320000648
1410.0	0.0007163	98.0629999638
1410.0	0.000716	98.1100001335
1410.0	0.0007155	98.1570000648
1410.0	0.0007155	98.1879999638
1410.0	0.0007153	98.2350001335
1410.0	0.0007153	98.2660000324
1410.0	0.0007153	98.3129999638
1410.0	0.0007153	98.3600001335
1410.0	0.0007155	98.3910000324
1410.0	0.0007155	98.4379999638
1410.0	0.0007153	98.4850001335
1410.0	0.0007153	98.5160000324
1410.0	0.000715	98.5629999638
1410.0	0.0007153	98.6100001335
1410.0	0.0007155	98.6410000324
1410.0	0.000716	98.6879999638
1410.0	0.000716	98.7350001335
1410.0	0.000716	98.7660000324
1410.0	0.000716	98.8129999638
1410.0	0.0007155	98.8600001335
1410.0	0.0007155	98.8910000324
1410.0	0.0007153	98.9379999638
1410.0	0.0007153	98.9690001011
1410.0	0.000715	99.0160000324
1410.0	0.000715	99.0629999638
1410.0	0.000715	99.0940001011
1410.0	0.0007148	99.1410000324
1410.0	0.000715	99.1879999638
1410.0	0.000715	99.2190001011
1410.0	0.0007148	99.2660000324
1420.0	0.000711	99.5320000648
1420.0	0.0007098	99.5780000687
1420.0	0.0007088	99.6100001335
1420.0	0.0007078	99.6570000648
1420.0	0.0007065	99.7030000687
1420.0	0.0007063	99.7350001335
1420.0	0.000706	99.7820000648
1420.0	0.0007053	99.8280000687
1420.0	0.000705	99.8600001335
1420.0	0.000705	99.9070000648
1420.0	0.0007048	99.9379999638
1420.0	0.000705	99.9850001335
1420.0	0.0007048	100.032000065
1420.0	0.0007048	100.062999964
1420.0	0.0007048	100.110000134
1420.0	0.0007048	100.157000065
1420.0	0.0007048	100.187999964
1420.0	0.0007048	100.235000134
1420.0	0.0007043	100.266000032
1420.0	0.0007043	100.312999964
1420.0	0.0007043	100.360000134
1420.0	0.0007048	100.391000032
1420.0	0.000705	100.437999964
1420.0	0.0007053	100.485000134
1420.0	0.000705	100.516000032
1420.0	0.000705	100.562999964
1420.0	0.0007048	100.594000101
1420.0	0.000705	100.641000032
1420.0	0.0007048	100.687999964
1420.0	0.0007043	100.719000101
1420.0	0.0007043	100.766000032
1420.0	0.0007043	100.812999964
1420.0	0.0007043	100.844000101
1420.0	0.0007048	100.891000032
1420.0	0.0007048	100.937999964
1420.0	0.0007048	100.969000101
1420.0	0.0007043	101.016000032
1430.0	0.0007025	101.282000065
1430.0	0.0007015	101.312999964
1430.0	0.0007013	101.360000134
1430.0	0.000701	101.407000065
1430.0	0.0007005	101.437999964
1430.0	0.0007003	101.485000134
1430.0	0.0007003	101.532000065
1430.0	0.0007003	101.562999964
1430.0	0.0007003	101.610000134
1430.0	0.0007003	101.657000065
1430.0	0.0007003	101.687999964
1430.0	0.0007003	101.735000134
1430.0	0.0007003	101.766000032
1430.0	0.0007005	101.812999964
1430.0	0.0007003	101.860000134
1430.0	0.0007	101.891000032
1430.0	0.0006998	101.937999964
1430.0	0.000699	101.985000134
1430.0	0.0006993	102.016000032
1430.0	0.0006998	102.062999964
1430.0	0.0007	102.094000101
1430.0	0.0007003	102.141000032
1430.0	0.0007	102.187999964
1430.0	0.0007003	102.219000101
1430.0	0.0007003	102.266000032
1430.0	0.0007003	102.312999964
1430.0	0.0007005	102.344000101
1430.0	0.000701	102.391000032
1430.0	0.0007005	102.42200017
1430.0	0.0007005	102.469000101
1430.0	0.0007005	102.516000032
1430.0	0.000701	102.54700017
1430.0	0.0007005	102.594000101
1430.0	0.0007003	102.641000032
1430.0	0.0007003	102.67200017
1430.0	0.0007003	102.719000101
1430.0	0.0007	102.766000032
1440.0	0.0007	103.032000065
1440.0	0.0007003	103.062999964
1440.0	0.0007013	103.110000134
1440.0	0.0007015	103.157000065
1440.0	0.0007018	103.187999964
1440.0	0.0007018	103.235000134
1440.0	0.0007023	103.282000065
1440.0	0.0007018	103.312999964
1440.0	0.0007023	103.360000134
1440.0	0.0007023	103.407000065
1440.0	0.0007023	103.437999964
1440.0	0.0007025	103.485000134
1440.0	0.0007028	103.516000032
1440.0	0.000703	103.562999964
1440.0	0.000703	103.610000134
1440.0	0.0007028	103.641000032
1440.0	0.0007028	103.687999964
1440.0	0.0007028	103.735000134
1440.0	0.0007023	103.766000032
1440.0	0.0007023	103.812999964
1440.0	0.0007023	103.844000101
1440.0	0.0007018	103.891000032
1440.0	0.0007018	103.937999964
1440.0	0.0007015	103.969000101
1440.0	0.0007015	104.016000032
1440.0	0.0007018	104.062999964
1440.0	0.0007018	104.094000101
1440.0	0.0007023	104.141000032
1440.0	0.0007023	104.17200017
1440.0	0.0007018	104.219000101
1440.0	0.0007023	104.266000032
1440.0	0.0007023	104.29700017
1440.0	0.0007025	104.344000101
1440.0	0.0007025	104.391000032
1440.0	0.0007025	104.437999964
1440.0	0.0007028	104.469000101
1440.0	0.0007025	104.516000032
1450.0	0.000705	104.782000065
1450.0	0.000706	104.828000069
1450.0	0.0007073	104.860000134
1450.0	0.0007075	104.907000065
1450.0	0.0007085	104.953000069
1450.0	0.0007085	104.985000134
1450.0	0.000709	105.032000065
1450.0	0.0007098	105.078000069
1450.0	0.0007098	105.110000134
1450.0	0.00071	105.157000065
1450.0	0.0007103	105.203000069
1450.0	0.0007103	105.235000134
1450.0	0.0007103	105.282000065
1450.0	0.00071	105.328000069
1450.0	0.0007098	105.360000134
1450.0	0.0007098	105.407000065
1450.0	0.00071	105.437999964
1450.0	0.0007103	105.485000134
1450.0	0.0007105	105.532000065
1450.0	0.0007103	105.562999964
1450.0	0.0007103	105.610000134
1450.0	0.0007103	105.657000065
1450.0	0.0007103	105.687999964
1450.0	0.0007103	105.735000134
1450.0	0.0007105	105.766000032
1450.0	0.000711	105.812999964
1450.0	0.000711	105.860000134
1450.0	0.000711	105.891000032
1450.0	0.0007105	105.937999964
1450.0	0.0007105	105.985000134
1450.0	0.0007103	106.016000032
1450.0	0.0007103	106.062999964
1450.0	0.0007105	106.094000101
1450.0	0.0007103	106.141000032
1450.0	0.00071	106.187999964
1450.0	0.00071	106.219000101
1450.0	0.00071	106.266000032
1460.0	0.000715	106.532000065
1460.0	0.0007165	106.578000069
1460.0	0.0007178	106.610000134
1460.0	0.000719	106.657000065
1460.0	0.0007203	106.703000069
1460.0	0.0007215	106.735000134
1460.0	0.0007225	106.782000065
1460.0	0.0007228	106.812999964
1460.0	0.000723	106.860000134
1460.0	0.000723	106.907000065
1460.0	0.000723	106.937999964
1460.0	0.0007235	106.985000134
1460.0	0.0007235	107.032000065
1460.0	0.0007235	107.062999964
1460.0	0.0007238	107.110000134
1460.0	0.0007238	107.157000065
1460.0	0.000724	107.187999964
1460.0	0.0007243	107.235000134
1460.0	0.000724	107.266000032
1460.0	0.000724	107.312999964
1460.0	0.000724	107.360000134
1460.0	0.000724	107.391000032
1460.0	0.000724	107.437999964
1460.0	0.0007238	107.485000134
1460.0	0.000724	107.516000032
1460.0	0.000724	107.562999964
1460.0	0.000724	107.594000101
1460.0	0.000724	107.641000032
1460.0	0.0007243	107.687999964
1460.0	0.000724	107.719000101
1460.0	0.000724	107.766000032
1460.0	0.0007243	107.812999964
1460.0	0.0007243	107.844000101
1460.0	0.0007243	107.891000032
1460.0	0.000724	107.92200017
1460.0	0.000724	107.969000101
1460.0	0.000724	108.016000032
1470.0	0.0007293	108.282000065
1470.0	0.0007315	108.312999964
1470.0	0.000733	108.360000134
1470.0	0.0007348	108.407000065
1470.0	0.000736	108.437999964
1470.0	0.0007365	108.485000134
1470.0	0.0007373	108.532000065
1470.0	0.0007378	108.562999964
1470.0	0.000738	108.610000134
1470.0	0.0007385	108.641000032
1470.0	0.0007388	108.687999964
1470.0	0.0007388	108.735000134
1470.0	0.000739	108.766000032
1470.0	0.0007393	108.812999964
1470.0	0.0007393	108.860000134
1470.0	0.0007398	108.891000032
1470.0	0.0007398	108.937999964
1470.0	0.0007398	108.969000101
1470.0	0.00074	109.016000032
1470.0	0.0007403	109.062999964
1470.0	0.0007405	109.094000101
1470.0	0.0007405	109.141000032
1470.0	0.0007403	109.187999964
1470.0	0.0007403	109.219000101
1470.0	0.0007403	109.266000032
1470.0	0.0007398	109.312999964
1470.0	0.0007398	109.344000101
1470.0	0.0007398	109.391000032
1470.0	0.0007398	109.42200017
1470.0	0.0007398	109.469000101
1470.0	0.0007398	109.516000032
1470.0	0.0007398	109.54700017
1470.0	0.0007398	109.594000101
1470.0	0.0007398	109.641000032
1470.0	0.0007398	109.67200017
1470.0	0.00074	109.719000101
1470.0	0.0007398	109.75
1480.0	0.0007455	110.016000032
1480.0	0.0007475	110.062999964
1480.0	0.0007488	110.110000134
1480.0	0.0007498	110.141000032
1480.0	0.000751	110.187999964
1480.0	0.0007513	110.235000134
1480.0	0.0007523	110.266000032
1480.0	0.0007525	110.312999964
1480.0	0.0007528	110.360000134
1480.0	0.0007535	110.391000032
1480.0	0.0007535	110.437999964
1480.0	0.0007535	110.469000101
1480.0	0.0007535	110.516000032
1480.0	0.000753	110.562999964
1480.0	0.000753	110.594000101
1480.0	0.000753	110.641000032
1480.0	0.000753	110.687999964
1480.0	0.000753	110.719000101
1480.0	0.0007528	110.766000032
1480.0	0.0007528	110.79700017
1480.0	0.0007528	110.844000101
1480.0	0.0007528	110.891000032
1480.0	0.000753	110.92200017
1480.0	0.0007528	110.969000101
1480.0	0.0007528	111.016000032
1480.0	0.000753	111.04700017
1480.0	0.0007535	111.094000101
1480.0	0.0007535	111.141000032
1480.0	0.0007535	111.17200017
1480.0	0.0007535	111.219000101
1480.0	0.000753	111.25
1480.0	0.0007535	111.29700017
1480.0	0.000753	111.344000101
1480.0	0.000753	111.375
1480.0	0.0007528	111.42200017
1480.0	0.0007528	111.469000101
1480.0	0.0007525	111.5
1490.0	0.0007563	111.766000032
1490.0	0.0007578	111.812999964
1490.0	0.000759	111.860000134
1490.0	0.0007603	111.891000032
1490.0	0.0007615	111.937999964
1490.0	0.0007625	111.985000134
1490.0	0.000763	112.016000032
1490.0	0.0007638	112.062999964
1490.0	0.000764	112.110000134
1490.0	0.0007643	112.141000032
1490.0	0.0007648	112.187999964
1490.0	0.0007648	112.219000101
1490.0	0.0007648	112.266000032
1490.0	0.000765	112.312999964
1490.0	0.0007648	112.360000134
1490.0	0.0007648	112.391000032
1490.0	0.0007648	112.437999964
1490.0	0.000765	112.469000101
1490.0	0.0007653	112.516000032
1490.0	0.000765	112.562999964
1490.0	0.0007653	112.594000101
1490.0	0.0007653	112.641000032
1490.0	0.0007653	112.687999964
1490.0	0.0007655	112.719000101
1490.0	0.000766	112.766000032
1490.0	0.000766	112.79700017
1490.0	0.0007663	112.844000101
1490.0	0.000766	112.891000032
1490.0	0.0007655	112.92200017
1490.0	0.0007653	112.969000101
1490.0	0.0007655	113.016000032
1490.0	0.000766	113.062999964
1490.0	0.000766	113.094000101
1490.0	0.0007653	113.141000032
1490.0	0.0007653	113.187999964
1490.0	0.0007653	113.219000101
1490.0	0.000765	113.266000032
1500.0	0.0007688	113.532000065
1500.0	0.0007703	113.578000069
1500.0	0.0007713	113.610000134
1500.0	0.0007723	113.657000065
1500.0	0.0007725	113.703000069
1500.0	0.000773	113.735000134
1500.0	0.000774	113.782000065
1500.0	0.0007748	113.828000069
1500.0	0.000775	113.860000134
1500.0	0.000775	113.907000065
1500.0	0.0007753	113.953000069
1500.0	0.0007755	113.985000134
1500.0	0.0007753	114.032000065
1500.0	0.0007753	114.062999964
1500.0	0.000775	114.110000134
1500.0	0.0007748	114.157000065
1500.0	0.000775	114.187999964
1500.0	0.0007755	114.235000134
1500.0	0.0007755	114.282000065
1500.0	0.0007755	114.312999964
1500.0	0.0007753	114.360000134
1500.0	0.000775	114.391000032
1500.0	0.0007753	114.437999964
1500.0	0.0007753	114.485000134
1500.0	0.000776	114.516000032
1500.0	0.000776	114.562999964
1500.0	0.0007755	114.610000134
1500.0	0.000776	114.641000032
1500.0	0.000776	114.687999964
1500.0	0.000776	114.719000101
1500.0	0.000776	114.766000032
1500.0	0.000776	114.812999964
1500.0	0.0007763	114.844000101
1500.0	0.0007763	114.891000032
1500.0	0.000776	114.937999964
1500.0	0.0007755	114.969000101
1500.0	0.0007755	115.016000032
1510.0	0.000778	115.29700017
1510.0	0.0007788	115.328000069
1510.0	0.000779	115.375
1510.0	0.0007788	115.407000065
1510.0	0.000779	115.453000069
1510.0	0.000779	115.5
1510.0	0.000779	115.532000065
1510.0	0.000779	115.578000069
1510.0	0.0007788	115.625
1510.0	0.0007788	115.657000065
1510.0	0.0007785	115.703000069
1510.0	0.0007785	115.735000134
1510.0	0.0007785	115.782000065
1510.0	0.0007788	115.828000069
1510.0	0.0007788	115.860000134
1510.0	0.000779	115.907000065
1510.0	0.000779	115.953000069
1510.0	0.0007793	115.985000134
1510.0	0.0007798	116.032000065
1510.0	0.000779	116.062999964
1510.0	0.000779	116.110000134
1510.0	0.000779	116.157000065
1510.0	0.000779	116.187999964
1510.0	0.000779	116.235000134
1510.0	0.000779	116.282000065
1510.0	0.000779	116.312999964
1510.0	0.0007793	116.360000134
1510.0	0.0007793	116.391000032
1510.0	0.0007798	116.437999964
1510.0	0.0007798	116.485000134
1510.0	0.0007798	116.516000032
1510.0	0.0007798	116.562999964
1510.0	0.0007793	116.610000134
1510.0	0.000779	116.641000032
1510.0	0.000779	116.687999964
1510.0	0.0007788	116.719000101
1510.0	0.0007785	116.766000032
1520.0	0.0007785	117.04700017
1520.0	0.0007785	117.078000069
1520.0	0.0007785	117.125
1520.0	0.0007788	117.157000065
1520.0	0.0007785	117.203000069
1520.0	0.0007785	117.25
1520.0	0.0007785	117.282000065
1520.0	0.0007788	117.328000069
1520.0	0.000779	117.375
1520.0	0.000779	117.407000065
1520.0	0.0007788	117.453000069
1520.0	0.0007788	117.5
1520.0	0.0007788	117.532000065
1520.0	0.000779	117.578000069
1520.0	0.0007798	117.625
1520.0	0.0007798	117.657000065
1520.0	0.00078	117.703000069
1520.0	0.0007798	117.735000134
1520.0	0.0007793	117.782000065
1520.0	0.0007793	117.828000069
1520.0	0.000779	117.860000134
1520.0	0.0007793	117.907000065
1520.0	0.000779	117.953000069
1520.0	0.000779	117.985000134
1520.0	0.0007793	118.032000065
1520.0	0.0007798	118.062999964
1520.0	0.0007798	118.110000134
1520.0	0.0007798	118.157000065
1520.0	0.0007798	118.187999964
1520.0	0.00078	118.235000134
1520.0	0.0007803	118.282000065
1520.0	0.000781	118.312999964
1520.0	0.0007813	118.360000134
1520.0	0.0007813	118.391000032
1520.0	0.000781	118.437999964
1520.0	0.0007815	118.485000134
1520.0	0.0007815	118.532000065
1530.0	0.00078	118.79700017
1530.0	0.0007798	118.844000101
1530.0	0.000779	118.891000032
1530.0	0.000779	118.92200017
1530.0	0.0007788	118.969000101
1530.0	0.0007785	119.016000032
1530.0	0.000778	119.04700017
1530.0	0.000778	119.094000101
1530.0	0.0007785	119.141000032
1530.0	0.0007788	119.17200017
1530.0	0.000779	119.219000101
1530.0	0.000779	119.25
1530.0	0.000779	119.29700017
1530.0	0.000779	119.344000101
1530.0	0.0007788	119.375
1530.0	0.0007785	119.42200017
1530.0	0.0007785	119.469000101
1530.0	0.0007785	119.5
1530.0	0.0007785	119.54700017
1530.0	0.0007785	119.578000069
1530.0	0.0007785	119.625
1530.0	0.0007788	119.67200017
1530.0	0.0007785	119.703000069
1530.0	0.0007788	119.75
1530.0	0.0007788	119.79700017
1530.0	0.000779	119.828000069
1530.0	0.0007793	119.875
1530.0	0.000779	119.92200017
1530.0	0.0007793	119.953000069
1530.0	0.000779	120.0
1530.0	0.000779	120.032000065
1530.0	0.0007788	120.078000069
1530.0	0.0007785	120.125
1530.0	0.0007788	120.157000065
1530.0	0.0007788	120.203000069
1530.0	0.0007785	120.235000134
1540.0	0.0007753	120.516000032
1540.0	0.0007743	120.562999964
1540.0	0.0007735	120.594000101
1540.0	0.0007728	120.641000032
1540.0	0.0007718	120.687999964
1540.0	0.0007715	120.719000101
1540.0	0.0007713	120.766000032
1540.0	0.000771	120.812999964
1540.0	0.000771	120.844000101
1540.0	0.000771	120.891000032
1540.0	0.0007705	120.92200017
1540.0	0.0007703	120.969000101
1540.0	0.00077	121.016000032
1540.0	0.00077	121.04700017
1540.0	0.00077	121.094000101
1540.0	0.00077	121.141000032
1540.0	0.0007698	121.17200017
1540.0	0.00077	121.219000101
1540.0	0.0007698	121.25
1540.0	0.00077	121.29700017
1540.0	0.00077	121.344000101
1540.0	0.00077	121.375
1540.0	0.00077	121.42200017
1540.0	0.00077	121.469000101
1540.0	0.0007703	121.5
1540.0	0.0007703	121.54700017
1540.0	0.0007703	121.578000069
1540.0	0.0007703	121.625
1540.0	0.0007703	121.67200017
1540.0	0.00077	121.703000069
1540.0	0.0007703	121.75
1540.0	0.0007705	121.79700017
1540.0	0.0007703	121.828000069
1540.0	0.0007703	121.875
1540.0	0.00077	121.92200017
1540.0	0.00077	121.953000069
1540.0	0.0007703	122.0
1550.0	0.000766	122.266000032
1550.0	0.0007648	122.312999964
1550.0	0.000763	122.344000101
1550.0	0.0007623	122.391000032
1550.0	0.0007618	122.437999964
1550.0	0.0007613	122.469000101
1550.0	0.000761	122.516000032
1550.0	0.000761	122.54700017
1550.0	0.0007603	122.594000101
1550.0	0.00076	122.641000032
1550.0	0.0007598	122.67200017
1550.0	0.00076	122.719000101
1550.0	0.00076	122.766000032
1550.0	0.00076	122.79700017
1550.0	0.0007603	122.844000101
1550.0	0.0007603	122.891000032
1550.0	0.00076	122.92200017
1550.0	0.0007603	122.969000101
1550.0	0.0007605	123.0
1550.0	0.0007605	123.04700017
1550.0	0.0007603	123.094000101
1550.0	0.0007603	123.125
1550.0	0.0007603	123.17200017
1550.0	0.0007603	123.219000101
1550.0	0.0007603	123.25
1550.0	0.0007603	123.29700017
1550.0	0.0007603	123.328000069
1550.0	0.0007598	123.375
1550.0	0.0007598	123.42200017
1550.0	0.00076	123.453000069
1550.0	0.00076	123.5
1550.0	0.00076	123.54700017
1550.0	0.00076	123.578000069
1550.0	0.0007598	123.625
1550.0	0.0007598	123.67200017
1550.0	0.0007598	123.703000069
1550.0	0.00076	123.75
1560.0	0.0007543	124.016000032
1560.0	0.0007518	124.062999964
1560.0	0.00075	124.110000134
1560.0	0.0007485	124.141000032
1560.0	0.0007468	124.187999964
1560.0	0.000746	124.219000101
1560.0	0.0007453	124.266000032
1560.0	0.0007443	124.312999964
1560.0	0.000744	124.344000101
1560.0	0.0007438	124.391000032
1560.0	0.0007435	124.437999964
1560.0	0.0007435	124.469000101
1560.0	0.000743	124.516000032
1560.0	0.000743	124.562999964
1560.0	0.0007435	124.594000101
1560.0	0.000743	124.641000032
1560.0	0.0007435	124.67200017
1560.0	0.0007435	124.719000101
1560.0	0.000743	124.766000032
1560.0	0.0007428	124.79700017
1560.0	0.0007428	124.844000101
1560.0	0.0007428	124.891000032
1560.0	0.0007425	124.92200017
1560.0	0.0007425	124.969000101
1560.0	0.0007425	125.0
1560.0	0.0007425	125.04700017
1560.0	0.0007425	125.094000101
1560.0	0.0007425	125.125
1560.0	0.0007423	125.17200017
1560.0	0.0007423	125.219000101
1560.0	0.0007425	125.25
1560.0	0.0007425	125.29700017
1560.0	0.0007425	125.328000069
1560.0	0.0007423	125.375
1560.0	0.0007418	125.42200017
1560.0	0.0007423	125.453000069
1560.0	0.0007418	125.5
1570.0	0.000735	125.766000032
1570.0	0.0007318	125.812999964
1570.0	0.0007293	125.860000134
1570.0	0.0007273	125.891000032
1570.0	0.000726	125.937999964
1570.0	0.0007248	125.985000134
1570.0	0.0007238	126.016000032
1570.0	0.000723	126.062999964
1570.0	0.0007223	126.110000134
1570.0	0.0007215	126.141000032
1570.0	0.0007213	126.187999964
1570.0	0.000721	126.235000134
1570.0	0.0007213	126.266000032
1570.0	0.0007213	126.312999964
1570.0	0.0007213	126.344000101
1570.0	0.0007218	126.391000032
1570.0	0.0007223	126.437999964
1570.0	0.0007225	126.469000101
1570.0	0.0007225	126.516000032
1570.0	0.0007223	126.562999964
1570.0	0.0007225	126.594000101
1570.0	0.0007228	126.641000032
1570.0	0.0007228	126.67200017
1570.0	0.000723	126.719000101
1570.0	0.0007235	126.766000032
1570.0	0.000723	126.79700017
1570.0	0.000723	126.844000101
1570.0	0.0007228	126.891000032
1570.0	0.0007225	126.92200017
1570.0	0.0007228	126.969000101
1570.0	0.0007223	127.0
1570.0	0.0007225	127.04700017
1570.0	0.0007223	127.094000101
1570.0	0.0007223	127.125
1570.0	0.0007223	127.17200017
1570.0	0.0007223	127.219000101
1570.0	0.0007223	127.25
1580.0	0.000713	127.532000065
1580.0	0.000709	127.562999964
1580.0	0.0007063	127.610000134
1580.0	0.0007038	127.641000032
1580.0	0.0007015	127.687999964
1580.0	0.0007	127.735000134
1580.0	0.0006985	127.766000032
1580.0	0.0006978	127.812999964
1580.0	0.0006975	127.860000134
1580.0	0.0006968	127.891000032
1580.0	0.0006965	127.937999964
1580.0	0.0006965	127.969000101
1580.0	0.0006963	128.016000032
1580.0	0.000696	128.062999964
1580.0	0.0006955	128.094000101
1580.0	0.0006953	128.141000032
1580.0	0.0006955	128.187999964
1580.0	0.0006953	128.219000101
1580.0	0.0006953	128.266000032
1580.0	0.0006953	128.312999964
1580.0	0.0006948	128.344000101
1580.0	0.0006943	128.391000032
1580.0	0.0006948	128.42200017
1580.0	0.0006948	128.469000101
1580.0	0.0006943	128.516000032
1580.0	0.000694	128.54700017
1580.0	0.000694	128.594000101
1580.0	0.0006943	128.641000032
1580.0	0.0006943	128.67200017
1580.0	0.0006943	128.719000101
1580.0	0.0006943	128.75
1580.0	0.0006943	128.79700017
1580.0	0.0006948	128.844000101
1580.0	0.0006943	128.875
1580.0	0.0006943	128.92200017
1580.0	0.0006943	128.969000101
1580.0	0.000694	129.0
1590.0	0.0006825	129.282000065
1590.0	0.0006778	129.312999964
1590.0	0.0006738	129.360000134
1590.0	0.0006705	129.407000065
1590.0	0.0006685	129.437999964
1590.0	0.0006668	129.485000134
1590.0	0.0006655	129.532000065
1590.0	0.0006648	129.562999964
1590.0	0.0006643	129.610000134
1590.0	0.000664	129.641000032
1590.0	0.000664	129.687999964
1590.0	0.000664	129.735000134
1590.0	0.0006638	129.766000032
1590.0	0.0006638	129.812999964
1590.0	0.0006635	129.860000134
1590.0	0.0006635	129.891000032
1590.0	0.0006628	129.937999964
1590.0	0.0006628	129.985000134
1590.0	0.0006628	130.016000032
1590.0	0.000663	130.062999964
1590.0	0.0006635	130.094000101
1590.0	0.0006635	130.141000032
1590.0	0.0006635	130.187999964
1590.0	0.0006635	130.235000134
1590.0	0.0006638	130.266000032
1590.0	0.0006643	130.312999964
1590.0	0.0006643	130.344000101
1590.0	0.0006648	130.391000032
1590.0	0.000665	130.437999964
1590.0	0.0006648	130.469000101
1590.0	0.0006643	130.516000032
1590.0	0.0006643	130.562999964
1590.0	0.0006643	130.594000101
1590.0	0.0006643	130.641000032
1590.0	0.0006643	130.67200017
1590.0	0.0006643	130.719000101
1590.0	0.0006643	130.766000032
1600.0	0.00065	131.032000065
1600.0	0.000645	131.078000069
1600.0	0.0006415	131.125
1600.0	0.000639	131.157000065
1600.0	0.0006368	131.203000069
1600.0	0.0006345	131.235000134
1600.0	0.0006333	131.282000065
1600.0	0.000632	131.328000069
1600.0	0.0006313	131.360000134
1600.0	0.0006303	131.407000065
1600.0	0.00063	131.453000069
1600.0	0.0006293	131.485000134
1600.0	0.0006288	131.532000065
1600.0	0.0006288	131.562999964
1600.0	0.0006283	131.610000134
1600.0	0.000628	131.657000065
1600.0	0.0006278	131.687999964
1600.0	0.0006275	131.735000134
1600.0	0.0006278	131.782000065
1600.0	0.0006275	131.812999964
1600.0	0.0006275	131.860000134
1600.0	0.000627	131.907000065
1600.0	0.0006275	131.937999964
1600.0	0.0006278	131.985000134
1600.0	0.000628	132.032000065
1600.0	0.0006278	132.062999964
1600.0	0.0006278	132.110000134
1600.0	0.0006278	132.157000065
1600.0	0.0006275	132.187999964
1600.0	0.0006275	132.235000134
1600.0	0.0006275	132.266000032
1600.0	0.0006278	132.312999964
1600.0	0.0006278	132.360000134
1600.0	0.0006275	132.391000032
1600.0	0.0006275	132.437999964
1600.0	0.000627	132.485000134
1600.0	0.000627	132.516000032
1610.0	0.0006118	132.79700017
1610.0	0.0006065	132.844000101
1610.0	0.000602	132.875
1610.0	0.0005983	132.92200017
1610.0	0.0005953	132.969000101
1610.0	0.000593	133.0
1610.0	0.0005913	133.04700017
1610.0	0.0005895	133.078000069
1610.0	0.0005888	133.125
1610.0	0.0005878	133.17200017
1610.0	0.0005875	133.203000069
1610.0	0.000587	133.25
1610.0	0.0005868	133.29700017
1610.0	0.0005865	133.328000069
1610.0	0.0005868	133.375
1610.0	0.0005865	133.42200017
1610.0	0.0005865	133.453000069
1610.0	0.0005868	133.5
1610.0	0.0005868	133.532000065
1610.0	0.000587	133.578000069
1610.0	0.0005875	133.625
1610.0	0.0005875	133.657000065
1610.0	0.0005875	133.703000069
1610.0	0.0005875	133.75
1610.0	0.0005875	133.782000065
1610.0	0.0005875	133.828000069
1610.0	0.000587	133.860000134
1610.0	0.0005868	133.907000065
1610.0	0.0005868	133.953000069
1610.0	0.0005868	133.985000134
1610.0	0.000587	134.032000065
1610.0	0.0005875	134.078000069
1610.0	0.0005875	134.110000134
1610.0	0.0005878	134.157000065
1610.0	0.0005883	134.187999964
1610.0	0.0005888	134.235000134
1610.0	0.0005888	134.282000065
1620.0	0.0005725	134.562999964
1620.0	0.0005668	134.594000101
1620.0	0.0005618	134.641000032
1620.0	0.0005575	134.67200017
1620.0	0.000554	134.719000101
1620.0	0.0005513	134.766000032
1620.0	0.0005493	134.79700017
1620.0	0.000548	134.844000101
1620.0	0.0005468	134.891000032
1620.0	0.0005463	134.92200017
1620.0	0.0005458	134.969000101
1620.0	0.0005455	135.016000032
1620.0	0.000545	135.04700017
1620.0	0.000545	135.094000101
1620.0	0.0005445	135.125
1620.0	0.0005445	135.17200017
1620.0	0.0005445	135.219000101
1620.0	0.0005445	135.25
1620.0	0.0005445	135.29700017
1620.0	0.0005443	135.344000101
1620.0	0.000544	135.375
1620.0	0.0005438	135.42200017
1620.0	0.000543	135.453000069
1620.0	0.000543	135.5
1620.0	0.0005428	135.54700017
1620.0	0.0005428	135.578000069
1620.0	0.0005428	135.625
1620.0	0.0005428	135.67200017
1620.0	0.000543	135.703000069
1620.0	0.0005428	135.75
1620.0	0.0005425	135.782000065
1620.0	0.000542	135.828000069
1620.0	0.000542	135.875
1620.0	0.000542	135.92200017
1620.0	0.000542	135.953000069
1620.0	0.000542	136.0
1620.0	0.0005425	136.04700017
1630.0	0.0005258	136.312999964
1630.0	0.00052	136.360000134
1630.0	0.000515	136.407000065
1630.0	0.0005108	136.437999964
1630.0	0.0005075	136.485000134
1630.0	0.000505	136.532000065
1630.0	0.000503	136.562999964
1630.0	0.0005015	136.610000134
1630.0	0.0005008	136.641000032
1630.0	0.0005	136.687999964
1630.0	0.0004995	136.735000134
1630.0	0.000499	136.766000032
1630.0	0.000499	136.812999964
1630.0	0.000499	136.860000134
1630.0	0.0004988	136.891000032
1630.0	0.0004988	136.937999964
1630.0	0.0004988	136.969000101
1630.0	0.0004988	137.016000032
1630.0	0.000498	137.062999964
1630.0	0.0004983	137.094000101
1630.0	0.0004983	137.141000032
1630.0	0.0004988	137.187999964
1630.0	0.0004988	137.219000101
1630.0	0.0004983	137.266000032
1630.0	0.000498	137.29700017
1630.0	0.000498	137.344000101
1630.0	0.0004988	137.391000032
1630.0	0.000499	137.42200017
1630.0	0.0004993	137.469000101
1630.0	0.0004993	137.516000032
1630.0	0.0004993	137.54700017
1630.0	0.000499	137.594000101
1630.0	0.0004993	137.625
1630.0	0.0004993	137.67200017
1630.0	0.000499	137.719000101
1630.0	0.000499	137.75
1630.0	0.0004988	137.79700017
1640.0	0.0004808	138.078000069
1640.0	0.0004745	138.125
1640.0	0.00047	138.157000065
1640.0	0.0004663	138.203000069
1640.0	0.0004628	138.25
1640.0	0.0004603	138.282000065
1640.0	0.0004588	138.328000069
1640.0	0.000457	138.375
1640.0	0.0004563	138.407000065
1640.0	0.0004558	138.453000069
1640.0	0.0004553	138.485000134
1640.0	0.0004545	138.532000065
1640.0	0.0004543	138.578000069
1640.0	0.0004538	138.610000134
1640.0	0.0004538	138.657000065
1640.0	0.000453	138.703000069
1640.0	0.0004525	138.735000134
1640.0	0.000452	138.782000065
1640.0	0.0004515	138.812999964
1640.0	0.0004515	138.860000134
1640.0	0.0004518	138.907000065
1640.0	0.0004518	138.937999964
1640.0	0.0004515	138.985000134
1640.0	0.0004515	139.032000065
1640.0	0.0004515	139.062999964
1640.0	0.0004518	139.110000134
1640.0	0.0004518	139.141000032
1640.0	0.0004518	139.187999964
1640.0	0.0004518	139.235000134
1640.0	0.0004518	139.266000032
1640.0	0.0004515	139.312999964
1640.0	0.0004515	139.360000134
1640.0	0.0004515	139.391000032
1640.0	0.0004513	139.437999964
1640.0	0.0004513	139.485000134
1640.0	0.0004508	139.516000032
1640.0	0.0004505	139.562999964
1650.0	0.000433	139.844000101
1650.0	0.0004275	139.891000032
1650.0	0.0004228	139.92200017
1650.0	0.0004188	139.969000101
1650.0	0.0004158	140.016000032
1650.0	0.0004133	140.04700017
1650.0	0.000412	140.094000101
1650.0	0.0004108	140.141000032
1650.0	0.00041	140.17200017
1650.0	0.0004093	140.219000101
1650.0	0.000409	140.25
1650.0	0.0004083	140.29700017
1650.0	0.0004078	140.344000101
1650.0	0.000407	140.375
1650.0	0.0004068	140.42200017
1650.0	0.0004068	140.469000101
1650.0	0.0004068	140.516000032
1650.0	0.0004068	140.54700017
1650.0	0.000407	140.594000101
1650.0	0.0004075	140.625
1650.0	0.0004075	140.67200017
1650.0	0.000408	140.719000101
1650.0	0.0004078	140.75
1650.0	0.000408	140.79700017
1650.0	0.000408	140.844000101
1650.0	0.0004078	140.875
1650.0	0.0004075	140.92200017
1650.0	0.0004075	140.953000069
1650.0	0.0004078	141.0
1650.0	0.000408	141.04700017
1650.0	0.0004083	141.078000069
1650.0	0.0004083	141.125
1650.0	0.0004083	141.17200017
1650.0	0.000408	141.203000069
1650.0	0.000408	141.25
1650.0	0.0004078	141.282000065
1650.0	0.0004078	141.328000069
1660.0	0.0003908	141.610000134
1660.0	0.000385	141.657000065
1660.0	0.0003803	141.687999964
1660.0	0.0003765	141.735000134
1660.0	0.0003733	141.782000065
1660.0	0.0003713	141.812999964
1660.0	0.0003693	141.860000134
1660.0	0.000368	141.907000065
1660.0	0.000367	141.937999964
1660.0	0.0003663	141.985000134
1660.0	0.0003655	142.016000032
1660.0	0.000365	142.062999964
1660.0	0.0003645	142.110000134
1660.0	0.0003645	142.141000032
1660.0	0.0003643	142.187999964
1660.0	0.0003643	142.235000134
1660.0	0.000364	142.266000032
1660.0	0.0003638	142.312999964
1660.0	0.0003638	142.360000134
1660.0	0.0003638	142.391000032
1660.0	0.0003638	142.437999964
1660.0	0.0003638	142.469000101
1660.0	0.0003638	142.516000032
1660.0	0.0003638	142.562999964
1660.0	0.0003638	142.594000101
1660.0	0.0003633	142.641000032
1660.0	0.0003633	142.687999964
1660.0	0.0003633	142.719000101
1660.0	0.0003638	142.766000032
1660.0	0.0003638	142.79700017
1660.0	0.0003638	142.844000101
1660.0	0.0003633	142.891000032
1660.0	0.0003633	142.92200017
1660.0	0.000363	142.969000101
1660.0	0.000363	143.016000032
1660.0	0.0003638	143.04700017
1660.0	0.0003638	143.094000101
1670.0	0.0003508	143.375
1670.0	0.0003458	143.42200017
1670.0	0.0003413	143.453000069
1670.0	0.0003375	143.5
1670.0	0.0003343	143.532000065
1670.0	0.0003318	143.578000069
1670.0	0.00033	143.625
1670.0	0.0003288	143.657000065
1670.0	0.0003278	143.703000069
1670.0	0.000327	143.75
1670.0	0.0003268	143.782000065
1670.0	0.0003268	143.828000069
1670.0	0.0003265	143.860000134
1670.0	0.0003263	143.907000065
1670.0	0.0003263	143.953000069
1670.0	0.0003258	143.985000134
1670.0	0.0003255	144.032000065
1670.0	0.0003255	144.078000069
1670.0	0.0003253	144.110000134
1670.0	0.0003253	144.157000065
1670.0	0.0003255	144.187999964
1670.0	0.0003255	144.235000134
1670.0	0.0003263	144.282000065
1670.0	0.0003265	144.312999964
1670.0	0.0003263	144.360000134
1670.0	0.0003258	144.407000065
1670.0	0.0003258	144.437999964
1670.0	0.0003255	144.485000134
1670.0	0.0003255	144.532000065
1670.0	0.0003255	144.562999964
1670.0	0.0003253	144.610000134
1670.0	0.0003253	144.641000032
1670.0	0.0003253	144.687999964
1670.0	0.000325	144.735000134
1670.0	0.000325	144.766000032
1670.0	0.000325	144.812999964
1670.0	0.0003245	144.860000134
1680.0	0.0003118	145.141000032
1680.0	0.0003068	145.187999964
1680.0	0.0003028	145.219000101
1680.0	0.0002995	145.266000032
1680.0	0.0002975	145.29700017
1680.0	0.0002953	145.344000101
1680.0	0.000294	145.391000032
1680.0	0.000293	145.42200017
1680.0	0.000292	145.469000101
1680.0	0.0002918	145.516000032
1680.0	0.0002915	145.54700017
1680.0	0.0002908	145.594000101
1680.0	0.0002913	145.641000032
1680.0	0.0002913	145.67200017
1680.0	0.0002913	145.719000101
1680.0	0.0002913	145.75
1680.0	0.0002908	145.79700017
1680.0	0.0002903	145.844000101
1680.0	0.00029	145.875
1680.0	0.0002895	145.92200017
1680.0	0.00029	145.969000101
1680.0	0.0002895	146.0
1680.0	0.0002895	146.04700017
1680.0	0.00029	146.078000069
1680.0	0.0002903	146.125
1680.0	0.0002903	146.17200017
1680.0	0.0002905	146.203000069
1680.0	0.0002903	146.25
1680.0	0.00029	146.29700017
1680.0	0.0002903	146.344000101
1680.0	0.00029	146.375
1680.0	0.0002903	146.42200017
1680.0	0.0002903	146.453000069
1680.0	0.0002905	146.5
1680.0	0.0002913	146.54700017
1680.0	0.0002913	146.578000069
1680.0	0.0002913	146.625
1690.0	0.0002788	146.907000065
1690.0	0.0002745	146.953000069
1690.0	0.0002718	147.0
1690.0	0.000269	147.032000065
1690.0	0.0002665	147.078000069
1690.0	0.000265	147.110000134
1690.0	0.0002633	147.157000065
1690.0	0.0002628	147.203000069
1690.0	0.000262	147.235000134
1690.0	0.0002613	147.282000065
1690.0	0.0002608	147.328000069
1690.0	0.0002605	147.360000134
1690.0	0.00026	147.407000065
1690.0	0.0002595	147.437999964
1690.0	0.0002595	147.485000134
1690.0	0.0002595	147.532000065
1690.0	0.00026	147.562999964
1690.0	0.00026	147.610000134
1690.0	0.00026	147.657000065
1690.0	0.00026	147.687999964
1690.0	0.0002603	147.735000134
1690.0	0.0002603	147.782000065
1690.0	0.0002603	147.812999964
1690.0	0.0002603	147.860000134
1690.0	0.0002605	147.907000065
1690.0	0.0002603	147.937999964
1690.0	0.00026	147.985000134
1690.0	0.00026	148.032000065
1690.0	0.00026	148.062999964
1690.0	0.0002603	148.110000134
1690.0	0.0002603	148.141000032
1690.0	0.00026	148.187999964
1690.0	0.0002595	148.235000134
1690.0	0.00026	148.266000032
1690.0	0.00026	148.312999964
1690.0	0.0002603	148.360000134
1690.0	0.0002603	148.391000032
1700.0	0.0002488	148.687999964
1700.0	0.000245	148.719000101
1700.0	0.000242	148.766000032
1700.0	0.0002403	148.79700017
1700.0	0.0002388	148.844000101
1700.0	0.0002375	148.891000032
1700.0	0.0002365	148.92200017
1700.0	0.0002353	148.969000101
1700.0	0.0002345	149.016000032
1700.0	0.0002343	149.04700017
1700.0	0.000234	149.094000101
1700.0	0.000234	149.141000032
1700.0	0.000234	149.17200017
1700.0	0.0002338	149.219000101
1700.0	0.0002333	149.25
1700.0	0.0002333	149.29700017
1700.0	0.000233	149.344000101
1700.0	0.0002333	149.375
1700.0	0.0002333	149.42200017
1700.0	0.0002338	149.469000101
1700.0	0.0002338	149.5
1700.0	0.0002333	149.54700017
1700.0	0.0002333	149.594000101
1700.0	0.0002333	149.625
1700.0	0.0002333	149.67200017
1700.0	0.0002338	149.719000101
1700.0	0.0002338	149.75
1700.0	0.0002333	149.79700017
1700.0	0.0002333	149.828000069
1700.0	0.0002333	149.875
1700.0	0.0002333	149.92200017
1700.0	0.0002328	149.953000069
1700.0	0.0002328	150.0
1700.0	0.0002328	150.04700017
1700.0	0.0002325	150.078000069
1700.0	0.0002328	150.125
1700.0	0.0002328	150.157000065
1710.0	0.0002225	150.453000069
1710.0	0.000219	150.485000134
1710.0	0.0002165	150.532000065
1710.0	0.0002143	150.578000069
1710.0	0.000213	150.610000134
1710.0	0.0002118	150.657000065
1710.0	0.0002108	150.703000069
1710.0	0.0002105	150.735000134
1710.0	0.0002103	150.782000065
1710.0	0.00021	150.828000069
1710.0	0.0002095	150.860000134
1710.0	0.0002093	150.907000065
1710.0	0.000209	150.937999964
1710.0	0.0002088	150.985000134
1710.0	0.0002088	151.032000065
1710.0	0.0002088	151.062999964
1710.0	0.0002083	151.110000134
1710.0	0.0002083	151.157000065
1710.0	0.0002088	151.187999964
1710.0	0.0002088	151.235000134
1710.0	0.0002088	151.266000032
1710.0	0.0002083	151.312999964
1710.0	0.0002083	151.360000134
1710.0	0.0002083	151.391000032
1710.0	0.0002083	151.437999964
1710.0	0.0002088	151.485000134
1710.0	0.000209	151.516000032
1710.0	0.000209	151.562999964
1710.0	0.000209	151.594000101
1710.0	0.000209	151.641000032
1710.0	0.0002093	151.687999964
1710.0	0.0002093	151.719000101
1710.0	0.000209	151.766000032
1710.0	0.000209	151.812999964
1710.0	0.0002093	151.844000101
1710.0	0.0002093	151.891000032
1710.0	0.0002095	151.92200017
1720.0	0.0002005	152.219000101
1720.0	0.0001978	152.266000032
1720.0	0.0001953	152.29700017
1720.0	0.0001933	152.344000101
1720.0	0.000192	152.375
1720.0	0.0001913	152.42200017
1720.0	0.0001905	152.469000101
1720.0	0.00019	152.5
1720.0	0.0001893	152.54700017
1720.0	0.0001888	152.594000101
1720.0	0.0001883	152.625
1720.0	0.0001883	152.67200017
1720.0	0.0001883	152.703000069
1720.0	0.0001888	152.75
1720.0	0.000189	152.79700017
1720.0	0.0001888	152.828000069
1720.0	0.0001883	152.875
1720.0	0.0001883	152.92200017
1720.0	0.0001883	152.953000069
1720.0	0.0001883	153.0
1720.0	0.000188	153.032000065
1720.0	0.0001878	153.078000069
1720.0	0.0001875	153.125
1720.0	0.0001868	153.157000065
1720.0	0.0001868	153.203000069
1720.0	0.0001868	153.25
1720.0	0.0001868	153.282000065
1720.0	0.0001868	153.328000069
1720.0	0.0001865	153.360000134
1720.0	0.0001865	153.407000065
1720.0	0.0001865	153.453000069
1720.0	0.0001863	153.485000134
1720.0	0.0001863	153.532000065
1720.0	0.0001863	153.578000069
1720.0	0.0001863	153.610000134
1720.0	0.0001863	153.657000065
1720.0	0.0001858	153.703000069
1730.0	0.00018	153.985000134
1730.0	0.0001775	154.032000065
1730.0	0.0001758	154.062999964
1730.0	0.0001743	154.110000134
1730.0	0.000173	154.157000065
1730.0	0.000172	154.187999964
1730.0	0.0001713	154.235000134
1730.0	0.0001708	154.282000065
1730.0	0.0001703	154.312999964
1730.0	0.00017	154.360000134
1730.0	0.0001695	154.391000032
1730.0	0.0001695	154.437999964
1730.0	0.0001693	154.485000134
1730.0	0.0001693	154.516000032
1730.0	0.0001693	154.562999964
1730.0	0.0001693	154.610000134
1730.0	0.0001693	154.641000032
1730.0	0.0001695	154.687999964
1730.0	0.0001693	154.735000134
1730.0	0.0001695	154.766000032
1730.0	0.0001695	154.812999964
1730.0	0.0001693	154.844000101
1730.0	0.0001695	154.891000032
1730.0	0.0001693	154.937999964
1730.0	0.0001693	154.969000101
1730.0	0.0001693	155.016000032
1730.0	0.0001693	155.062999964
1730.0	0.0001693	155.094000101
1730.0	0.0001693	155.141000032
1730.0	0.0001693	155.17200017
1730.0	0.0001693	155.219000101
1730.0	0.0001693	155.266000032
1730.0	0.0001693	155.29700017
1730.0	0.0001693	155.344000101
1730.0	0.0001693	155.391000032
1730.0	0.000169	155.42200017
1730.0	0.0001693	155.469000101
1740.0	0.0001638	155.766000032
1740.0	0.0001615	155.79700017
1740.0	0.0001595	155.844000101
1740.0	0.0001583	155.875
1740.0	0.0001575	155.92200017
1740.0	0.0001565	155.969000101
1740.0	0.0001555	156.0
1740.0	0.000155	156.04700017
1740.0	0.0001543	156.094000101
1740.0	0.000154	156.125
1740.0	0.0001538	156.17200017
1740.0	0.0001533	156.203000069
1740.0	0.0001533	156.25
1740.0	0.0001533	156.29700017
1740.0	0.0001533	156.328000069
1740.0	0.000153	156.375
1740.0	0.000153	156.42200017
1740.0	0.0001533	156.453000069
1740.0	0.0001533	156.5
1740.0	0.000153	156.532000065
1740.0	0.0001528	156.578000069
1740.0	0.0001528	156.625
1740.0	0.0001525	156.657000065
1740.0	0.0001525	156.703000069
1740.0	0.0001528	156.75
1740.0	0.000153	156.782000065
1740.0	0.000153	156.828000069
1740.0	0.000153	156.860000134
1740.0	0.0001528	156.907000065
1740.0	0.0001528	156.953000069
1740.0	0.0001525	156.985000134
1740.0	0.0001525	157.032000065
1740.0	0.000152	157.078000069
1740.0	0.0001518	157.110000134
1740.0	0.0001515	157.157000065
1740.0	0.0001515	157.187999964
1740.0	0.0001515	157.235000134
1750.0	0.0001465	157.532000065
1750.0	0.000144	157.578000069
1750.0	0.0001425	157.610000134
1750.0	0.0001408	157.657000065
1750.0	0.00014	157.703000069
1750.0	0.0001393	157.735000134
1750.0	0.0001388	157.782000065
1750.0	0.0001388	157.812999964
1750.0	0.000138	157.860000134
1750.0	0.0001378	157.907000065
1750.0	0.0001378	157.937999964
1750.0	0.000137	157.985000134
1750.0	0.000137	158.032000065
1750.0	0.0001375	158.062999964
1750.0	0.0001375	158.110000134
1750.0	0.0001375	158.141000032
1750.0	0.0001378	158.187999964
1750.0	0.0001378	158.235000134
1750.0	0.0001378	158.266000032
1750.0	0.0001375	158.312999964
1750.0	0.0001375	158.360000134
1750.0	0.0001378	158.391000032
1750.0	0.0001378	158.437999964
1750.0	0.000138	158.469000101
1750.0	0.000138	158.516000032
1750.0	0.0001378	158.562999964
1750.0	0.0001378	158.594000101
1750.0	0.000138	158.641000032
1750.0	0.000138	158.687999964
1750.0	0.000138	158.719000101
1750.0	0.000138	158.766000032
1750.0	0.000138	158.812999964
1750.0	0.000138	158.844000101
1750.0	0.0001383	158.891000032
1750.0	0.0001388	158.92200017
1750.0	0.0001388	158.969000101
1750.0	0.0001388	159.016000032
1760.0	0.000133	159.312999964
1760.0	0.0001313	159.360000134
1760.0	0.00013	159.391000032
1760.0	0.0001283	159.437999964
1760.0	0.000127	159.485000134
1760.0	0.0001263	159.516000032
1760.0	0.0001258	159.562999964
1760.0	0.0001258	159.610000134
1760.0	0.0001255	159.641000032
1760.0	0.000125	159.687999964
1760.0	0.0001245	159.719000101
1760.0	0.0001245	159.766000032
1760.0	0.0001243	159.812999964
1760.0	0.0001243	159.844000101
1760.0	0.0001243	159.891000032
1760.0	0.000125	159.937999964
1760.0	0.000125	159.969000101
1760.0	0.0001245	160.016000032
1760.0	0.0001245	160.04700017
1760.0	0.000124	160.094000101
1760.0	0.000124	160.141000032
1760.0	0.000124	160.17200017
1760.0	0.000124	160.219000101
1760.0	0.000124	160.266000032
1760.0	0.000124	160.29700017
1760.0	0.0001243	160.344000101
1760.0	0.000124	160.375
1760.0	0.0001243	160.42200017
1760.0	0.0001243	160.469000101
1760.0	0.000124	160.5
1760.0	0.000124	160.54700017
1760.0	0.000124	160.594000101
1760.0	0.000124	160.625
1760.0	0.0001238	160.67200017
1760.0	0.0001233	160.719000101
1760.0	0.0001233	160.75
1760.0	0.0001233	160.79700017
1770.0	0.000118	161.094000101
1770.0	0.0001158	161.141000032
1770.0	0.0001145	161.17200017
1770.0	0.0001138	161.219000101
1770.0	0.000113	161.266000032
1770.0	0.0001118	161.29700017
1770.0	0.0001113	161.344000101
1770.0	0.0001105	161.391000032
1770.0	0.0001103	161.42200017
1770.0	0.00011	161.469000101
1770.0	0.0001095	161.516000032
1770.0	0.0001093	161.54700017
1770.0	0.0001093	161.594000101
1770.0	0.0001095	161.641000032
1770.0	0.00011	161.67200017
1770.0	0.00011	161.719000101
1770.0	0.00011	161.766000032
1770.0	0.00011	161.79700017
1770.0	0.00011	161.844000101
1770.0	0.0001103	161.875
1770.0	0.0001103	161.92200017
1770.0	0.0001105	161.969000101
1770.0	0.0001105	162.0
1770.0	0.0001108	162.04700017
1770.0	0.0001108	162.094000101
1770.0	0.0001113	162.125
1770.0	0.0001113	162.17200017
1770.0	0.0001113	162.203000069
1770.0	0.0001113	162.25
1770.0	0.0001113	162.29700017
1770.0	0.0001118	162.328000069
1770.0	0.0001118	162.375
1770.0	0.000112	162.42200017
1770.0	0.000112	162.453000069
1770.0	0.0001118	162.5
1770.0	0.0001115	162.532000065
1770.0	0.0001113	162.578000069
1780.0	0.0001055	162.891000032
1780.0	0.000104	162.92200017
1780.0	0.000103	162.969000101
1780.0	0.000102	163.0
1780.0	0.0001013	163.04700017
1780.0	0.0001	163.094000101
1780.0	9.95e-05	163.125
1780.0	9.9e-05	163.17200017
1780.0	9.83e-05	163.219000101
1780.0	9.8e-05	163.25
1780.0	9.78e-05	163.29700017
1780.0	9.8e-05	163.344000101
1780.0	9.83e-05	163.375
1780.0	9.83e-05	163.42200017
1780.0	9.88e-05	163.453000069
1780.0	9.83e-05	163.5
1780.0	9.8e-05	163.54700017
1780.0	9.8e-05	163.578000069
1780.0	9.83e-05	163.625
1780.0	9.83e-05	163.67200017
1780.0	9.8e-05	163.703000069
1780.0	9.8e-05	163.75
1780.0	9.83e-05	163.782000065
1780.0	9.8e-05	163.828000069
1780.0	9.83e-05	163.875
1780.0	9.83e-05	163.907000065
1780.0	9.83e-05	163.953000069
1780.0	9.88e-05	163.985000134
1780.0	9.83e-05	164.032000065
1780.0	9.8e-05	164.078000069
1780.0	9.8e-05	164.110000134
1780.0	9.8e-05	164.157000065
1780.0	9.78e-05	164.203000069
1780.0	9.78e-05	164.235000134
1780.0	9.78e-05	164.282000065
1780.0	9.75e-05	164.328000069
1780.0	9.7e-05	164.360000134
1790.0	9.28e-05	164.67200017
1790.0	9.08e-05	164.703000069
1790.0	8.95e-05	164.75
1790.0	8.88e-05	164.79700017
1790.0	8.8e-05	164.828000069
1790.0	8.78e-05	164.875
1790.0	8.75e-05	164.907000065
1790.0	8.68e-05	164.953000069
1790.0	8.65e-05	165.0
1790.0	8.63e-05	165.032000065
1790.0	8.63e-05	165.078000069
1790.0	8.63e-05	165.125
1790.0	8.65e-05	165.157000065
1790.0	8.63e-05	165.203000069
1790.0	8.63e-05	165.235000134
1790.0	8.65e-05	165.282000065
1790.0	8.63e-05	165.328000069
1790.0	8.63e-05	165.360000134
1790.0	8.63e-05	165.407000065
1790.0	8.58e-05	165.453000069
1790.0	8.63e-05	165.485000134
1790.0	8.63e-05	165.532000065
1790.0	8.63e-05	165.562999964
1790.0	8.63e-05	165.610000134
1790.0	8.63e-05	165.657000065
1790.0	8.65e-05	165.687999964
1790.0	8.68e-05	165.735000134
1790.0	8.68e-05	165.782000065
1790.0	8.68e-05	165.812999964
1790.0	8.65e-05	165.860000134
1790.0	8.63e-05	165.891000032
1790.0	8.63e-05	165.937999964
1790.0	8.63e-05	165.985000134
1790.0	8.63e-05	166.016000032
1790.0	8.63e-05	166.062999964
1790.0	8.63e-05	166.110000134
1790.0	8.63e-05	166.141000032
1800.0	8.2e-05	166.437999964
1800.0	8.08e-05	166.485000134
1800.0	7.95e-05	166.532000065
1800.0	7.88e-05	166.562999964
1800.0	7.8e-05	166.610000134
1800.0	7.8e-05	166.657000065
1800.0	7.78e-05	166.687999964
1800.0	7.78e-05	166.735000134
1800.0	7.75e-05	166.766000032
1800.0	7.7e-05	166.812999964
1800.0	7.65e-05	166.860000134
1800.0	7.58e-05	166.891000032
1800.0	7.63e-05	166.937999964
1800.0	7.63e-05	166.985000134
1800.0	7.58e-05	167.016000032
1800.0	7.63e-05	167.062999964
1800.0	7.63e-05	167.094000101
1800.0	7.58e-05	167.141000032
1800.0	7.58e-05	167.187999964
1800.0	7.55e-05	167.219000101
1800.0	7.58e-05	167.266000032
1800.0	7.63e-05	167.312999964
1800.0	7.63e-05	167.344000101
1800.0	7.58e-05	167.391000032
1800.0	7.55e-05	167.437999964
1800.0	7.55e-05	167.469000101
1800.0	7.55e-05	167.516000032
1800.0	7.55e-05	167.54700017
1800.0	7.58e-05	167.594000101
1800.0	7.58e-05	167.641000032
1800.0	7.55e-05	167.67200017
1800.0	7.58e-05	167.719000101
1800.0	7.58e-05	167.766000032
1800.0	7.58e-05	167.79700017
1800.0	7.63e-05	167.844000101
1800.0	7.58e-05	167.875
1800.0	7.58e-05	167.92200017
