Your edit line - do NOT delete this line
Wavelength [nm], Slit width [mm], Voltage [V], Elapsed time [s]
800.0	0.6	4.3e-05	18.1100001335
810.0	0.6	4.68e-05	19.4530000687
820.0	0.6	5e-05	20.7970001698
830.0	0.6	5.53e-05	22.125
840.0	0.6	6.15e-05	23.4379999638
850.0	0.6	6.68e-05	24.75
860.0	0.6	7.38e-05	26.0629999638
870.0	0.6	8.2e-05	27.3600001335
880.0	0.6	9.08e-05	28.6720001698
890.0	0.6	0.0001005	29.9690001011
900.0	0.6	0.0001125	31.25
910.0	0.6	0.000125	32.5470001698
920.0	0.6	0.000139	33.8280000687
930.0	0.6	0.0001538	35.1100001335
940.0	0.6	0.0001708	36.3910000324
950.0	0.6	0.000187	37.6720001698
960.0	0.6	0.0002045	38.9379999638
970.0	0.6	0.0002228	40.2030000687
980.0	0.6	0.000242	41.4690001011
990.0	0.6	0.0002608	42.7350001335
1000.0	0.6	0.0002808	44.0
1010.0	0.6	0.0003013	45.2660000324
1020.0	0.6	0.000324	46.5320000648
1030.0	0.6	0.0003478	47.7970001698
1040.0	0.6	0.0003725	49.0470001698
1050.0	0.6	0.000398	50.3129999638
1060.0	0.6	0.000424	51.5320000648
1070.0	0.6	0.00045	52.7970001698
1080.0	0.6	0.000475	54.0629999638
1090.0	0.6	0.0004958	55.3129999638
1100.0	0.6	0.0005163	56.5320000648
1110.0	0.6	0.0005353	57.7820000648
1120.0	0.6	0.0005503	59.0320000648
1130.0	0.6	0.0005625	60.2820000648
1140.0	0.6	0.0005725	61.5470001698
1150.0	0.6	0.0005788	62.7970001698
1160.0	0.6	0.000583	64.0470001698
1170.0	0.6	0.0005853	65.3129999638
1180.0	0.6	0.0005868	66.5629999638
1190.0	0.6	0.0005875	67.8129999638
1200.0	0.6	0.0005895	69.0629999638
1210.0	0.6	0.0005913	70.3129999638
1220.0	0.6	0.0005955	71.5629999638
1230.0	0.6	0.0006003	72.8129999638
1240.0	0.6	0.000608	74.0629999638
1250.0	0.6	0.0006165	75.3129999638
1260.0	0.6	0.0006245	76.5629999638
1270.0	0.6	0.0006343	77.8129999638
1280.0	0.6	0.000641	79.0780000687
1290.0	0.6	0.000645	80.3280000687
1300.0	0.6	0.000645	81.5780000687
1310.0	0.6	0.0006403	82.8440001011
1320.0	0.6	0.0006305	84.0780000687
1330.0	0.6	0.0006163	85.3440001011
1340.0	0.6	0.000594	86.5940001011
1350.0	0.6	0.0005678	87.8440001011
1360.0	0.6	0.0005388	89.0940001011
1370.0	0.6	0.0005088	90.3440001011
1380.0	0.6	0.000478	91.5940001011
1390.0	0.6	0.0004513	92.8440001011
1400.0	0.6	0.0004263	94.0940001011
1410.0	0.6	0.000407	95.3440001011
1420.0	0.6	0.000392	96.5780000687
1430.0	0.6	0.00038	97.8280000687
1440.0	0.6	0.000373	99.0780000687
1450.0	0.6	0.0003713	100.328000069
1460.0	0.6	0.000373	101.54700017
1470.0	0.6	0.0003778	102.79700017
1480.0	0.6	0.0003855	104.016000032
1490.0	0.6	0.0003915	105.266000032
1500.0	0.6	0.0003963	106.532000065
1510.0	0.6	0.0003995	107.782000065
1520.0	0.6	0.0004013	109.0
1530.0	0.6	0.0004018	110.25
1540.0	0.6	0.0003993	111.5
1550.0	0.6	0.0003958	112.75
1560.0	0.6	0.000389	114.0
1570.0	0.6	0.0003788	115.266000032
1580.0	0.6	0.0003658	116.532000065
1590.0	0.6	0.0003493	117.782000065
1600.0	0.6	0.0003315	119.04700017
1610.0	0.6	0.00031	120.29700017
1620.0	0.6	0.0002868	121.562999964
1630.0	0.6	0.000262	122.828000069
1640.0	0.6	0.000237	124.094000101
1650.0	0.6	0.0002133	125.360000134
1660.0	0.6	0.0001878	126.625
1670.0	0.6	0.0001665	127.891000032
1680.0	0.6	0.0001458	129.17200017
1690.0	0.6	0.0001288	130.453000069
1700.0	0.6	0.0001143	131.719000101
1710.0	0.6	0.0001018	132.985000134
1720.0	0.6	9.08e-05	134.266000032
1730.0	0.6	8.13e-05	135.532000065
1740.0	0.6	7.25e-05	136.79700017
1750.0	0.6	6.43e-05	138.078000069
1760.0	0.6	5.88e-05	139.344000101
1770.0	0.6	5.4e-05	140.610000134
1780.0	0.6	4.75e-05	141.891000032
1790.0	0.6	4.3e-05	143.17200017
1800.0	0.6	3.7e-05	144.437999964
