Your edit line - do NOT delete this line
Wavelength [nm], Slit width [mm], Voltage [V], Elapsed time [s]
800.0	0.6	2.8e-05	18.1089999676
810.0	0.6	3e-05	19.4530000687
820.0	0.6	3.28e-05	20.7810001373
830.0	0.6	3.68e-05	22.1089999676
840.0	0.6	4e-05	23.4370000362
850.0	0.6	4.38e-05	24.75
860.0	0.6	4.8e-05	26.0620000362
870.0	0.6	5.53e-05	27.3589999676
880.0	0.6	6.33e-05	28.6560001373
890.0	0.6	7.05e-05	29.9530000687
900.0	0.6	8.03e-05	31.25
910.0	0.6	9.08e-05	32.5310001373
920.0	0.6	0.0001033	33.8280000687
930.0	0.6	0.0001158	35.0929999352
940.0	0.6	0.00013	36.375
950.0	0.6	0.0001458	37.6560001373
960.0	0.6	0.0001605	38.9370000362
970.0	0.6	0.0001775	40.2030000687
980.0	0.6	0.0001938	41.4679999352
990.0	0.6	0.0002103	42.7339999676
1000.0	0.6	0.000228	44.0
1010.0	0.6	0.0002465	45.2650001049
1020.0	0.6	0.0002658	46.5310001373
1030.0	0.6	0.000283	47.7969999313
1040.0	0.6	0.0003033	49.0469999313
1050.0	0.6	0.000323	50.3120000362
1060.0	0.6	0.000344	51.5780000687
1070.0	0.6	0.0003633	52.8280000687
1080.0	0.6	0.0003833	54.0929999352
1090.0	0.6	0.0004005	55.3120000362
1100.0	0.6	0.0004155	56.5620000362
1110.0	0.6	0.0004303	57.7810001373
1120.0	0.6	0.000444	59.0310001373
1130.0	0.6	0.000455	60.2810001373
1140.0	0.6	0.0004653	61.5310001373
1150.0	0.6	0.0004733	62.7810001373
1160.0	0.6	0.0004808	64.0469999313
1170.0	0.6	0.0004875	65.2969999313
1180.0	0.6	0.0004943	66.5469999313
1190.0	0.6	0.0005008	67.8120000362
1200.0	0.6	0.0005103	69.0469999313
1210.0	0.6	0.00052	70.2969999313
1220.0	0.6	0.0005315	71.5469999313
1230.0	0.6	0.0005455	72.7969999313
1240.0	0.6	0.0005613	74.0469999313
1250.0	0.6	0.000578	75.3120000362
1260.0	0.6	0.0005958	76.5620000362
1270.0	0.6	0.0006138	77.8120000362
1280.0	0.6	0.0006315	79.0780000687
1290.0	0.6	0.0006448	80.3280000687
1300.0	0.6	0.0006548	81.5780000687
1310.0	0.6	0.0006593	82.8280000687
1320.0	0.6	0.0006578	84.0780000687
1330.0	0.6	0.00065	85.3429999352
1340.0	0.6	0.000635	86.5929999352
1350.0	0.6	0.0006145	87.8429999352
1360.0	0.6	0.0005895	89.0929999352
1370.0	0.6	0.0005638	90.3429999352
1380.0	0.6	0.0005365	91.5929999352
1390.0	0.6	0.0005115	92.8429999352
1400.0	0.6	0.0004925	94.0780000687
1410.0	0.6	0.000477	95.3280000687
1420.0	0.6	0.0004653	96.5780000687
1430.0	0.6	0.0004593	97.8280000687
1440.0	0.6	0.0004583	99.0620000362
1450.0	0.6	0.0004628	100.312000036
1460.0	0.6	0.0004708	101.562000036
1470.0	0.6	0.0004843	102.828000069
1480.0	0.6	0.0004975	104.078000069
1490.0	0.6	0.000512	105.328000069
1500.0	0.6	0.0005233	106.592999935
1510.0	0.6	0.0005305	107.842999935
1520.0	0.6	0.0005375	109.108999968
1530.0	0.6	0.0005395	110.358999968
1540.0	0.6	0.0005405	111.608999968
1550.0	0.6	0.000539	112.858999968
1560.0	0.6	0.0005315	114.125
1570.0	0.6	0.0005213	115.375
1580.0	0.6	0.0005055	116.608999968
1590.0	0.6	0.0004843	117.858999968
1600.0	0.6	0.0004608	119.125
1610.0	0.6	0.0004325	120.390000105
1620.0	0.6	0.0004003	121.656000137
1630.0	0.6	0.0003688	122.921999931
1640.0	0.6	0.0003345	124.171999931
1650.0	0.6	0.0003008	125.437000036
1660.0	0.6	0.0002678	126.717999935
1670.0	0.6	0.0002375	127.953000069
1680.0	0.6	0.0002093	129.217999935
1690.0	0.6	0.000185	130.483999968
1700.0	0.6	0.0001638	131.765000105
1710.0	0.6	0.0001458	133.0
1720.0	0.6	0.000129	134.265000105
1730.0	0.6	0.0001165	135.531000137
1740.0	0.6	0.0001043	136.812000036
1750.0	0.6	9.43e-05	138.078000069
1760.0	0.6	8.65e-05	139.342999935
1770.0	0.6	7.83e-05	140.625
1780.0	0.6	7.13e-05	141.890000105
1790.0	0.6	6.28e-05	143.171999931
1800.0	0.6	5.63e-05	144.453000069
