Your edit line - do NOT delete this line
Wavelength [nm], Voltage [V], Elapsed time [s]
900.0	0.0001895	1.5150001049
900.0	0.0001863	1.54700016975
900.0	0.0001828	1.59300017357
900.0	0.0001805	1.6400001049
900.0	0.000179	1.67200016975
900.0	0.000177	1.71800017357
900.0	0.0001765	1.75
900.0	0.0001758	1.79700016975
900.0	0.0001755	1.84300017357
900.0	0.0001753	1.875
900.0	0.0001743	1.92200016975
900.0	0.0001738	1.96800017357
900.0	0.0001738	2.0
900.0	0.0001743	2.04700016975
900.0	0.000174	2.07800006866
900.0	0.0001738	2.125
900.0	0.000173	2.17200016975
900.0	0.0001738	2.20300006866
900.0	0.0001738	2.25
900.0	0.0001733	2.29700016975
900.0	0.0001733	2.32800006866
900.0	0.0001733	2.375
900.0	0.000174	2.40600013733
900.0	0.000174	2.45300006866
900.0	0.0001733	2.5
900.0	0.000173	2.53100013733
900.0	0.0001738	2.57800006866
900.0	0.0001738	2.625
900.0	0.000173	2.65600013733
900.0	0.0001733	2.70300006866
900.0	0.0001733	2.75
900.0	0.0001738	2.78100013733
900.0	0.000174	2.82800006866
900.0	0.000174	2.875
900.0	0.0001733	2.90600013733
900.0	0.0001728	2.95300006866
900.0	0.0001725	3.0
910.0	0.0001813	3.29700016975
910.0	0.0001828	3.34300017357
910.0	0.000185	3.3900001049
910.0	0.000187	3.42200016975
910.0	0.000188	3.46800017357
910.0	0.000189	3.5
910.0	0.00019	3.54700016975
910.0	0.0001915	3.59300017357
910.0	0.0001918	3.625
910.0	0.000192	3.67200016975
910.0	0.0001918	3.71800017357
910.0	0.0001925	3.75
910.0	0.000193	3.79700016975
910.0	0.0001933	3.82800006866
910.0	0.0001928	3.875
910.0	0.0001928	3.92200016975
910.0	0.000193	3.95300006866
910.0	0.000194	4.0
910.0	0.0001938	4.04700016975
910.0	0.0001933	4.07800006866
910.0	0.0001933	4.125
910.0	0.0001938	4.15600013733
910.0	0.000194	4.20300006866
910.0	0.0001938	4.25
910.0	0.0001938	4.28100013733
910.0	0.0001938	4.32800006866
910.0	0.000195	4.375
910.0	0.000195	4.40600013733
910.0	0.0001943	4.45300006866
910.0	0.0001945	4.48400020599
910.0	0.0001945	4.53100013733
910.0	0.0001955	4.57800006866
910.0	0.0001945	4.60900020599
910.0	0.0001945	4.65600013733
910.0	0.0001943	4.70300006866
910.0	0.0001953	4.73400020599
910.0	0.0001953	4.78100013733
920.0	0.0002038	5.07800006866
920.0	0.0002075	5.125
920.0	0.000209	5.17200016975
920.0	0.0002108	5.20300006866
920.0	0.0002125	5.25
920.0	0.000213	5.28100013733
920.0	0.0002143	5.32800006866
920.0	0.0002143	5.375
920.0	0.0002143	5.40600013733
920.0	0.0002145	5.45300006866
920.0	0.0002158	5.5
920.0	0.0002155	5.53100013733
920.0	0.0002158	5.57800006866
920.0	0.0002155	5.625
920.0	0.0002165	5.65600013733
920.0	0.000217	5.70300006866
920.0	0.0002163	5.73400020599
920.0	0.0002165	5.78100013733
920.0	0.0002168	5.82800006866
920.0	0.000217	5.85900020599
920.0	0.0002165	5.90600013733
920.0	0.000217	5.95300006866
920.0	0.0002158	5.98400020599
920.0	0.0002158	6.03100013733
920.0	0.0002163	6.06200003624
920.0	0.0002155	6.10900020599
920.0	0.0002158	6.15600013733
920.0	0.0002158	6.18700003624
920.0	0.0002168	6.23400020599
920.0	0.000217	6.28100013733
920.0	0.0002163	6.31200003624
920.0	0.0002158	6.35900020599
920.0	0.0002155	6.3900001049
920.0	0.0002165	6.43700003624
920.0	0.0002163	6.48400020599
920.0	0.0002158	6.5150001049
920.0	0.0002153	6.56200003624
930.0	0.000228	6.85900020599
930.0	0.0002308	6.90600013733
930.0	0.0002338	6.95300006866
930.0	0.0002365	6.98400020599
930.0	0.0002375	7.03100013733
930.0	0.0002388	7.07800006866
930.0	0.0002393	7.10900020599
930.0	0.0002405	7.15600013733
930.0	0.0002415	7.18700003624
930.0	0.0002413	7.23400020599
930.0	0.0002413	7.28100013733
930.0	0.0002418	7.31200003624
930.0	0.000242	7.35900020599
930.0	0.0002425	7.40600013733
930.0	0.0002418	7.43700003624
930.0	0.000242	7.48400020599
930.0	0.0002428	7.53100013733
930.0	0.0002428	7.56200003624
930.0	0.0002425	7.60900020599
930.0	0.0002425	7.6400001049
930.0	0.0002428	7.68700003624
930.0	0.0002428	7.73400020599
930.0	0.000243	7.7650001049
930.0	0.0002428	7.81200003624
930.0	0.0002425	7.84300017357
930.0	0.0002425	7.8900001049
930.0	0.0002428	7.93700003624
930.0	0.0002433	7.96800017357
930.0	0.0002425	8.0150001049
930.0	0.0002428	8.06200003624
930.0	0.0002433	8.09300017357
930.0	0.0002433	8.1400001049
930.0	0.0002438	8.17200016975
930.0	0.0002428	8.21800017357
930.0	0.000242	8.2650001049
930.0	0.0002428	8.29700016975
930.0	0.000243	8.34300017357
940.0	0.0002538	8.6400001049
940.0	0.0002568	8.68700003624
940.0	0.0002593	8.71800017357
940.0	0.0002615	8.7650001049
940.0	0.0002638	8.81200003624
940.0	0.0002655	8.84300017357
940.0	0.0002653	8.8900001049
940.0	0.0002658	8.93700003624
940.0	0.0002665	8.96800017357
940.0	0.0002665	9.0150001049
940.0	0.000267	9.06200003624
940.0	0.0002665	9.09300017357
940.0	0.0002665	9.1400001049
940.0	0.0002663	9.18700003624
940.0	0.0002668	9.21800017357
940.0	0.000267	9.2650001049
940.0	0.0002668	9.31200003624
940.0	0.0002665	9.34300017357
940.0	0.0002668	9.3900001049
940.0	0.0002675	9.42200016975
940.0	0.000268	9.46800017357
940.0	0.0002678	9.5150001049
940.0	0.0002678	9.54700016975
940.0	0.0002688	9.59300017357
940.0	0.0002693	9.6400001049
940.0	0.0002683	9.67200016975
940.0	0.000267	9.71800017357
940.0	0.0002678	9.7650001049
940.0	0.0002688	9.79700016975
940.0	0.000269	9.84300017357
940.0	0.000268	9.8900001049
940.0	0.000268	9.93700003624
940.0	0.0002683	9.96800017357
940.0	0.000269	10.0150001049
940.0	0.0002695	10.0470001698
940.0	0.0002695	10.0930001736
940.0	0.0002703	10.1400001049
950.0	0.00028	10.4220001698
950.0	0.0002845	10.4680001736
950.0	0.0002875	10.5150001049
950.0	0.0002893	10.5470001698
950.0	0.0002913	10.5930001736
950.0	0.000293	10.6400001049
950.0	0.000294	10.6720001698
950.0	0.0002955	10.7180001736
950.0	0.0002968	10.7650001049
950.0	0.0002968	10.7970001698
950.0	0.0002968	10.8430001736
950.0	0.0002968	10.875
950.0	0.000298	10.9220001698
950.0	0.0002988	10.9680001736
950.0	0.000298	11.0
950.0	0.000298	11.0470001698
950.0	0.0002983	11.0930001736
950.0	0.0002993	11.125
950.0	0.0002988	11.1720001698
950.0	0.000298	11.2180001736
950.0	0.0002978	11.25
950.0	0.000299	11.2970001698
950.0	0.0002995	11.3280000687
950.0	0.0002988	11.375
950.0	0.0002983	11.4220001698
950.0	0.0002975	11.4530000687
950.0	0.000298	11.5
950.0	0.0002975	11.5470001698
950.0	0.000297	11.5780000687
950.0	0.0002968	11.625
950.0	0.000298	11.6560001373
950.0	0.000299	11.7030000687
950.0	0.000298	11.75
950.0	0.000297	11.7810001373
950.0	0.0002968	11.8280000687
950.0	0.0002975	11.875
950.0	0.000298	11.9060001373
960.0	0.0003088	12.2030000687
960.0	0.0003125	12.234000206
960.0	0.0003163	12.2810001373
960.0	0.0003175	12.3280000687
960.0	0.000319	12.359000206
960.0	0.00032	12.4060001373
960.0	0.0003218	12.4370000362
960.0	0.0003225	12.484000206
960.0	0.000322	12.5310001373
960.0	0.0003228	12.5620000362
960.0	0.0003225	12.609000206
960.0	0.0003238	12.6560001373
960.0	0.0003233	12.6870000362
960.0	0.000324	12.734000206
960.0	0.000324	12.7810001373
960.0	0.0003233	12.8120000362
960.0	0.0003243	12.859000206
960.0	0.000325	12.9060001373
960.0	0.0003243	12.9370000362
960.0	0.0003243	12.984000206
960.0	0.0003243	13.0150001049
960.0	0.000325	13.0620000362
960.0	0.000325	13.109000206
960.0	0.000324	13.1400001049
960.0	0.000324	13.1870000362
960.0	0.0003238	13.234000206
960.0	0.0003243	13.2650001049
960.0	0.0003255	13.3120000362
960.0	0.000325	13.359000206
960.0	0.000325	13.3900001049
960.0	0.000325	13.4370000362
960.0	0.0003263	13.484000206
960.0	0.0003265	13.5150001049
960.0	0.0003258	13.5620000362
960.0	0.0003253	13.5930001736
960.0	0.0003263	13.6400001049
960.0	0.000327	13.6870000362
970.0	0.0003388	13.9680001736
970.0	0.0003425	14.0150001049
970.0	0.000345	14.0470001698
970.0	0.0003475	14.0930001736
970.0	0.0003493	14.125
970.0	0.0003508	14.1720001698
970.0	0.0003538	14.2180001736
970.0	0.0003545	14.25
970.0	0.0003538	14.2970001698
970.0	0.0003543	14.3430001736
970.0	0.000355	14.375
970.0	0.0003568	14.4220001698
970.0	0.0003555	14.4530000687
970.0	0.0003555	14.5
970.0	0.0003555	14.5470001698
970.0	0.0003568	14.5780000687
970.0	0.0003565	14.625
970.0	0.0003558	14.6720001698
970.0	0.0003555	14.7030000687
970.0	0.0003553	14.75
970.0	0.0003565	14.7970001698
970.0	0.0003558	14.8280000687
970.0	0.0003555	14.875
970.0	0.0003558	14.9060001373
970.0	0.0003555	14.9530000687
970.0	0.000357	15.0
970.0	0.0003565	15.0310001373
970.0	0.000355	15.0780000687
970.0	0.0003545	15.125
970.0	0.0003563	15.1560001373
970.0	0.0003565	15.2030000687
970.0	0.0003553	15.234000206
970.0	0.000355	15.2810001373
970.0	0.0003555	15.3280000687
970.0	0.0003558	15.359000206
970.0	0.0003543	15.4060001373
970.0	0.0003543	15.4530000687
980.0	0.0003663	15.734000206
980.0	0.0003713	15.7810001373
980.0	0.000373	15.8120000362
980.0	0.0003753	15.859000206
980.0	0.000377	15.8900001049
980.0	0.0003795	15.9370000362
980.0	0.0003803	15.984000206
980.0	0.0003813	16.0150001049
980.0	0.000382	16.0620000362
980.0	0.0003838	16.109000206
980.0	0.0003843	16.1400001049
980.0	0.0003838	16.1870000362
980.0	0.0003833	16.2180001736
980.0	0.0003833	16.2650001049
980.0	0.000384	16.3120000362
980.0	0.0003853	16.3430001736
980.0	0.0003838	16.3900001049
980.0	0.0003833	16.4370000362
980.0	0.0003833	16.4680001736
980.0	0.000385	16.5150001049
980.0	0.000384	16.5620000362
980.0	0.000384	16.5930001736
980.0	0.0003855	16.6400001049
980.0	0.0003843	16.6870000362
980.0	0.0003855	16.7180001736
980.0	0.0003855	16.7650001049
980.0	0.0003853	16.8120000362
980.0	0.000385	16.8430001736
980.0	0.0003845	16.8900001049
980.0	0.0003855	16.9220001698
980.0	0.0003865	16.9680001736
980.0	0.0003855	17.0150001049
980.0	0.0003853	17.0470001698
980.0	0.0003853	17.0930001736
980.0	0.0003865	17.1400001049
980.0	0.0003865	17.1720001698
980.0	0.0003863	17.2180001736
990.0	0.0003975	17.484000206
990.0	0.0004013	17.5310001373
990.0	0.0004065	17.5780000687
990.0	0.0004093	17.609000206
990.0	0.0004103	17.6560001373
990.0	0.000412	17.7030000687
990.0	0.0004145	17.734000206
990.0	0.0004153	17.7810001373
990.0	0.000415	17.8120000362
990.0	0.0004163	17.859000206
990.0	0.0004165	17.9060001373
990.0	0.0004175	17.9370000362
990.0	0.0004178	17.984000206
990.0	0.0004165	18.0310001373
990.0	0.0004168	18.0620000362
990.0	0.0004163	18.109000206
990.0	0.0004183	18.1400001049
990.0	0.0004183	18.1870000362
990.0	0.000417	18.234000206
990.0	0.0004165	18.2650001049
990.0	0.0004163	18.3120000362
990.0	0.0004163	18.359000206
990.0	0.000417	18.4060001373
990.0	0.0004165	18.4370000362
990.0	0.0004153	18.484000206
990.0	0.0004153	18.5150001049
990.0	0.0004165	18.5620000362
990.0	0.0004175	18.609000206
990.0	0.0004158	18.6400001049
990.0	0.0004153	18.6870000362
990.0	0.000415	18.734000206
990.0	0.0004165	18.7650001049
990.0	0.0004163	18.8120000362
990.0	0.0004153	18.8430001736
990.0	0.0004153	18.8900001049
990.0	0.0004168	18.9370000362
990.0	0.000417	18.9680001736
1000.0	0.000427	19.25
1000.0	0.0004325	19.2970001698
1000.0	0.0004343	19.3280000687
1000.0	0.000437	19.375
1000.0	0.0004393	19.4220001698
1000.0	0.000442	19.4530000687
1000.0	0.000444	19.5
1000.0	0.0004443	19.5470001698
1000.0	0.0004453	19.5780000687
1000.0	0.0004463	19.625
1000.0	0.0004475	19.6720001698
1000.0	0.000447	19.7030000687
1000.0	0.0004475	19.75
1000.0	0.0004475	19.7810001373
1000.0	0.0004488	19.8280000687
1000.0	0.0004495	19.875
1000.0	0.000448	19.9060001373
1000.0	0.0004483	19.9530000687
1000.0	0.000448	20.0
1000.0	0.0004495	20.0310001373
1000.0	0.00045	20.0780000687
1000.0	0.0004495	20.109000206
1000.0	0.00045	20.1560001373
1000.0	0.00045	20.2030000687
1000.0	0.0004513	20.234000206
1000.0	0.0004503	20.2810001373
1000.0	0.00045	20.3280000687
1000.0	0.0004493	20.359000206
1000.0	0.0004505	20.4060001373
1000.0	0.0004505	20.4370000362
1000.0	0.00045	20.484000206
1000.0	0.00045	20.5310001373
1000.0	0.0004493	20.5620000362
1000.0	0.0004513	20.609000206
1000.0	0.0004515	20.6560001373
1000.0	0.0004495	20.6870000362
1000.0	0.0004493	20.734000206
1010.0	0.000462	21.0150001049
1010.0	0.0004653	21.0620000362
1010.0	0.0004695	21.0930001736
1010.0	0.0004733	21.1400001049
1010.0	0.0004763	21.1720001698
1010.0	0.0004763	21.2180001736
1010.0	0.0004768	21.2650001049
1010.0	0.0004775	21.2970001698
1010.0	0.0004795	21.3430001736
1010.0	0.0004783	21.3900001049
1010.0	0.000479	21.4220001698
1010.0	0.0004783	21.4680001736
1010.0	0.000479	21.5150001049
1010.0	0.0004808	21.5470001698
1010.0	0.00048	21.5930001736
1010.0	0.00048	21.6400001049
1010.0	0.00048	21.6720001698
1010.0	0.0004813	21.7180001736
1010.0	0.000482	21.7650001049
1010.0	0.000482	21.7970001698
1010.0	0.0004805	21.8430001736
1010.0	0.0004803	21.875
1010.0	0.0004808	21.9220001698
1010.0	0.0004815	21.9680001736
1010.0	0.0004803	22.0
1010.0	0.00048	22.0470001698
1010.0	0.00048	22.0930001736
1010.0	0.0004813	22.125
1010.0	0.0004813	22.1720001698
1010.0	0.00048	22.2030000687
1010.0	0.0004795	22.25
1010.0	0.00048	22.2970001698
1010.0	0.0004818	22.3280000687
1010.0	0.0004805	22.375
1010.0	0.0004815	22.4220001698
1010.0	0.0004815	22.4530000687
1010.0	0.0004833	22.5
1020.0	0.000495	22.7810001373
1020.0	0.0005005	22.8120000362
1020.0	0.0005045	22.859000206
1020.0	0.0005063	22.9060001373
1020.0	0.0005083	22.9370000362
1020.0	0.0005118	22.984000206
1020.0	0.000513	23.0310001373
1020.0	0.000512	23.0780000687
1020.0	0.000515	23.109000206
1020.0	0.000514	23.1560001373
1020.0	0.0005138	23.2030000687
1020.0	0.000514	23.234000206
1020.0	0.0005163	23.2810001373
1020.0	0.000517	23.3120000362
1020.0	0.0005155	23.359000206
1020.0	0.0005155	23.4060001373
1020.0	0.0005153	23.4370000362
1020.0	0.0005168	23.484000206
1020.0	0.0005163	23.5310001373
1020.0	0.000515	23.5620000362
1020.0	0.0005143	23.609000206
1020.0	0.0005138	23.6400001049
1020.0	0.0005158	23.6870000362
1020.0	0.0005138	23.734000206
1020.0	0.0005143	23.7650001049
1020.0	0.0005143	23.8120000362
1020.0	0.0005168	23.859000206
1020.0	0.0005165	23.8900001049
1020.0	0.0005143	23.9370000362
1020.0	0.0005143	23.9680001736
1020.0	0.000514	24.0150001049
1020.0	0.0005158	24.0620000362
1020.0	0.0005153	24.0930001736
1020.0	0.0005143	24.1400001049
1020.0	0.000513	24.1870000362
1020.0	0.0005153	24.2180001736
1020.0	0.0005153	24.2650001049
1030.0	0.0005263	24.5470001698
1030.0	0.0005325	24.5780000687
1030.0	0.000535	24.625
1030.0	0.0005378	24.6720001698
1030.0	0.0005405	24.7030000687
1030.0	0.0005445	24.75
1030.0	0.0005463	24.7970001698
1030.0	0.0005455	24.8280000687
1030.0	0.0005463	24.875
1030.0	0.0005493	24.9060001373
1030.0	0.0005493	24.9530000687
1030.0	0.000548	25.0
1030.0	0.000548	25.0310001373
1030.0	0.0005483	25.0780000687
1030.0	0.0005503	25.125
1030.0	0.0005513	25.1560001373
1030.0	0.0005493	25.2030000687
1030.0	0.0005495	25.234000206
1030.0	0.0005495	25.2810001373
1030.0	0.0005518	25.3280000687
1030.0	0.0005518	25.359000206
1030.0	0.0005495	25.4060001373
1030.0	0.000549	25.4530000687
1030.0	0.0005488	25.484000206
1030.0	0.0005505	25.5310001373
1030.0	0.0005488	25.5780000687
1030.0	0.0005493	25.609000206
1030.0	0.0005493	25.6560001373
1030.0	0.0005513	25.6870000362
1030.0	0.0005513	25.734000206
1030.0	0.0005493	25.7810001373
1030.0	0.0005493	25.8120000362
1030.0	0.0005493	25.859000206
1030.0	0.0005513	25.8900001049
1030.0	0.0005508	25.9370000362
1030.0	0.0005488	25.984000206
1030.0	0.0005483	26.0150001049
1040.0	0.0005613	26.3120000362
1040.0	0.000565	26.3430001736
1040.0	0.0005688	26.3900001049
1040.0	0.0005738	26.4220001698
1040.0	0.0005763	26.4680001736
1040.0	0.0005758	26.5150001049
1040.0	0.0005768	26.5470001698
1040.0	0.0005803	26.5930001736
1040.0	0.00058	26.6400001049
1040.0	0.00058	26.6720001698
1040.0	0.0005803	26.7180001736
1040.0	0.0005805	26.75
1040.0	0.0005813	26.7970001698
1040.0	0.000583	26.8430001736
1040.0	0.0005808	26.875
1040.0	0.0005815	26.9220001698
1040.0	0.0005815	26.9680001736
1040.0	0.0005838	27.0
1040.0	0.0005833	27.0470001698
1040.0	0.000582	27.0930001736
1040.0	0.0005818	27.125
1040.0	0.0005828	27.1720001698
1040.0	0.0005845	27.2030000687
1040.0	0.0005833	27.25
1040.0	0.0005838	27.2970001698
1040.0	0.0005845	27.3280000687
1040.0	0.0005853	27.375
1040.0	0.0005855	27.4220001698
1040.0	0.0005833	27.4530000687
1040.0	0.0005833	27.5
1040.0	0.0005828	27.5310001373
1040.0	0.0005853	27.5780000687
1040.0	0.000585	27.625
1040.0	0.0005833	27.6560001373
1040.0	0.000583	27.7030000687
1040.0	0.0005845	27.75
1040.0	0.0005853	27.7810001373
1050.0	0.0005955	28.0620000362
1050.0	0.0006013	28.109000206
1050.0	0.0006058	28.1560001373
1050.0	0.0006068	28.1870000362
1050.0	0.0006093	28.234000206
1050.0	0.0006128	28.2650001049
1050.0	0.000614	28.3120000362
1050.0	0.000613	28.359000206
1050.0	0.0006143	28.3900001049
1050.0	0.0006145	28.4370000362
1050.0	0.000617	28.484000206
1050.0	0.0006175	28.5150001049
1050.0	0.0006153	28.5620000362
1050.0	0.0006153	28.5930001736
1050.0	0.0006145	28.6400001049
1050.0	0.0006168	28.6870000362
1050.0	0.000617	28.734000206
1050.0	0.0006163	28.7650001049
1050.0	0.0006143	28.8120000362
1050.0	0.000614	28.859000206
1050.0	0.0006163	28.8900001049
1050.0	0.0006163	28.9370000362
1050.0	0.0006145	28.9680001736
1050.0	0.0006143	29.0150001049
1050.0	0.0006145	29.0620000362
1050.0	0.0006163	29.0930001736
1050.0	0.0006165	29.1400001049
1050.0	0.000614	29.1870000362
1050.0	0.0006138	29.2180001736
1050.0	0.0006138	29.2650001049
1050.0	0.0006158	29.2970001698
1050.0	0.0006168	29.3430001736
1050.0	0.0006145	29.3900001049
1050.0	0.0006143	29.4220001698
1050.0	0.0006143	29.4680001736
1050.0	0.000617	29.5150001049
1050.0	0.0006155	29.5470001698
1060.0	0.0006278	29.8280000687
1060.0	0.0006325	29.875
1060.0	0.0006363	29.9060001373
1060.0	0.0006415	29.9530000687
1060.0	0.0006423	30.0
1060.0	0.0006435	30.0470001698
1060.0	0.0006475	30.0780000687
1060.0	0.0006463	30.125
1060.0	0.0006468	30.1720001698
1060.0	0.0006473	30.2030000687
1060.0	0.000649	30.25
1060.0	0.000651	30.2970001698
1060.0	0.0006485	30.3280000687
1060.0	0.0006488	30.375
1060.0	0.000648	30.4060001373
1060.0	0.0006513	30.4530000687
1060.0	0.000649	30.5
1060.0	0.000649	30.5470001698
1060.0	0.000649	30.5780000687
1060.0	0.0006488	30.625
1060.0	0.0006485	30.6560001373
1060.0	0.0006513	30.7030000687
1060.0	0.0006498	30.75
1060.0	0.0006493	30.7810001373
1060.0	0.0006493	30.8280000687
1060.0	0.0006515	30.875
1060.0	0.0006493	30.9060001373
1060.0	0.0006498	30.9530000687
1060.0	0.0006493	30.984000206
1060.0	0.000649	31.0310001373
1060.0	0.0006515	31.0780000687
1060.0	0.0006518	31.109000206
1060.0	0.0006498	31.1560001373
1060.0	0.0006493	31.2030000687
1060.0	0.0006523	31.234000206
1060.0	0.0006523	31.2810001373
1070.0	0.0006593	31.5620000362
1070.0	0.000666	31.5930001736
1070.0	0.0006673	31.6400001049
1070.0	0.0006698	31.6870000362
1070.0	0.0006735	31.7180001736
1070.0	0.000674	31.7650001049
1070.0	0.0006738	31.8120000362
1070.0	0.0006743	31.8430001736
1070.0	0.0006743	31.8900001049
1070.0	0.0006778	31.9220001698
1070.0	0.000679	31.9680001736
1070.0	0.0006768	32.0150001049
1070.0	0.0006773	32.0470001698
1070.0	0.0006773	32.0930001736
1070.0	0.00068	32.1400001049
1070.0	0.000681	32.1720001698
1070.0	0.000679	32.2180001736
1070.0	0.000678	32.25
1070.0	0.0006803	32.2970001698
1070.0	0.0006813	32.3430001736
1070.0	0.0006798	32.375
1070.0	0.0006793	32.4220001698
1070.0	0.0006788	32.4680001736
1070.0	0.0006793	32.5
1070.0	0.0006813	32.5470001698
1070.0	0.0006793	32.5780000687
1070.0	0.000679	32.625
1070.0	0.0006818	32.6720001698
1070.0	0.00068	32.7180001736
1070.0	0.0006823	32.75
1070.0	0.0006828	32.7970001698
1070.0	0.000681	32.8430001736
1070.0	0.0006803	32.875
1070.0	0.0006828	32.9220001698
1070.0	0.0006835	32.9530000687
1070.0	0.0006828	33.0
1070.0	0.000681	33.0470001698
1080.0	0.0006925	33.3120000362
1080.0	0.0006953	33.359000206
1080.0	0.000701	33.3900001049
1080.0	0.0007035	33.4370000362
1080.0	0.0007035	33.484000206
1080.0	0.0007053	33.5150001049
1080.0	0.000706	33.5620000362
1080.0	0.000709	33.609000206
1080.0	0.0007085	33.6400001049
1080.0	0.0007085	33.6870000362
1080.0	0.000708	33.734000206
1080.0	0.0007093	33.7650001049
1080.0	0.0007105	33.8120000362
1080.0	0.0007088	33.8430001736
1080.0	0.0007098	33.8900001049
1080.0	0.000709	33.9370000362
1080.0	0.0007103	33.9680001736
1080.0	0.000709	34.0150001049
1080.0	0.000709	34.0620000362
1080.0	0.0007088	34.0930001736
1080.0	0.000708	34.1400001049
1080.0	0.000711	34.1870000362
1080.0	0.000711	34.2180001736
1080.0	0.000709	34.2650001049
1080.0	0.0007085	34.3120000362
1080.0	0.0007085	34.3430001736
1080.0	0.000711	34.3900001049
1080.0	0.0007105	34.4370000362
1080.0	0.0007085	34.4680001736
1080.0	0.0007078	34.5150001049
1080.0	0.00071	34.5470001698
1080.0	0.000711	34.5930001736
1080.0	0.0007105	34.6400001049
1080.0	0.0007085	34.6720001698
1080.0	0.0007073	34.7180001736
1080.0	0.0007093	34.7650001049
1080.0	0.0007098	34.7970001698
1090.0	0.0007163	35.0780000687
1090.0	0.0007215	35.109000206
1090.0	0.0007243	35.1560001373
1090.0	0.000729	35.2030000687
1090.0	0.0007313	35.234000206
1090.0	0.0007325	35.2810001373
1090.0	0.0007313	35.3280000687
1090.0	0.0007318	35.359000206
1090.0	0.0007328	35.4060001373
1090.0	0.000736	35.4370000362
1090.0	0.0007343	35.484000206
1090.0	0.000734	35.5310001373
1090.0	0.0007348	35.5620000362
1090.0	0.0007368	35.609000206
1090.0	0.0007375	35.6560001373
1090.0	0.000735	35.6870000362
1090.0	0.0007348	35.734000206
1090.0	0.0007348	35.7650001049
1090.0	0.0007368	35.8120000362
1090.0	0.0007348	35.859000206
1090.0	0.0007353	35.8900001049
1090.0	0.0007343	35.9370000362
1090.0	0.0007378	35.984000206
1090.0	0.0007368	36.0150001049
1090.0	0.0007355	36.0620000362
1090.0	0.000736	36.0930001736
1090.0	0.0007365	36.1400001049
1090.0	0.000739	36.1870000362
1090.0	0.000739	36.2180001736
1090.0	0.0007373	36.2650001049
1090.0	0.0007365	36.3120000362
1090.0	0.0007393	36.3430001736
1090.0	0.000739	36.3900001049
1090.0	0.0007385	36.4370000362
1090.0	0.0007365	36.4680001736
1090.0	0.0007365	36.5150001049
1090.0	0.0007363	36.5470001698
1100.0	0.0007453	36.8280000687
1100.0	0.0007503	36.875
1100.0	0.000751	36.9060001373
1100.0	0.000753	36.9530000687
1100.0	0.0007555	37.0
1100.0	0.000759	37.0310001373
1100.0	0.0007605	37.0780000687
1100.0	0.0007588	37.109000206
1100.0	0.0007593	37.1560001373
1100.0	0.0007613	37.2030000687
1100.0	0.0007623	37.234000206
1100.0	0.0007598	37.2810001373
1100.0	0.0007598	37.3280000687
1100.0	0.0007605	37.359000206
1100.0	0.0007615	37.4060001373
1100.0	0.0007618	37.4530000687
1100.0	0.0007623	37.484000206
1100.0	0.0007605	37.5310001373
1100.0	0.0007605	37.5780000687
1100.0	0.0007598	37.609000206
1100.0	0.0007628	37.6560001373
1100.0	0.0007635	37.6870000362
1100.0	0.000761	37.734000206
1100.0	0.000761	37.7810001373
1100.0	0.0007625	37.8120000362
1100.0	0.0007635	37.859000206
1100.0	0.0007605	37.9060001373
1100.0	0.0007605	37.9370000362
1100.0	0.0007598	37.984000206
1100.0	0.0007618	38.0150001049
1100.0	0.0007625	38.0620000362
1100.0	0.0007603	38.109000206
1100.0	0.00076	38.1400001049
1100.0	0.0007588	38.1870000362
1100.0	0.0007623	38.234000206
1100.0	0.0007618	38.2650001049
1100.0	0.0007598	38.3120000362
1110.0	0.0007685	38.5780000687
1110.0	0.0007718	38.625
1110.0	0.0007735	38.6720001698
1110.0	0.000773	38.7030000687
1110.0	0.0007743	38.75
1110.0	0.0007748	38.7810001373
1110.0	0.0007778	38.8280000687
1110.0	0.0007788	38.875
1110.0	0.0007773	38.9060001373
1110.0	0.000778	38.9530000687
1110.0	0.000778	39.0
1110.0	0.0007815	39.0310001373
1110.0	0.000781	39.0780000687
1110.0	0.000779	39.109000206
1110.0	0.0007785	39.1560001373
1110.0	0.0007813	39.2030000687
1110.0	0.000779	39.25
1110.0	0.0007815	39.2810001373
1110.0	0.000779	39.3280000687
1110.0	0.0007788	39.359000206
1110.0	0.0007785	39.4060001373
1110.0	0.0007815	39.4530000687
1110.0	0.00078	39.484000206
1110.0	0.0007798	39.5310001373
1110.0	0.0007798	39.5780000687
1110.0	0.0007798	39.609000206
1110.0	0.000783	39.6560001373
1110.0	0.0007815	39.7030000687
1110.0	0.0007818	39.734000206
1110.0	0.000783	39.7810001373
1110.0	0.0007855	39.8120000362
1110.0	0.000786	39.859000206
1110.0	0.0007835	39.9060001373
1110.0	0.0007828	39.9370000362
1110.0	0.0007838	39.984000206
1110.0	0.0007855	40.0150001049
1120.0	0.0007913	40.2970001698
1120.0	0.0007918	40.3280000687
1120.0	0.0007935	40.375
1120.0	0.0007978	40.4220001698
1120.0	0.0007993	40.4530000687
1120.0	0.000801	40.5
1120.0	0.0007993	40.5470001698
1120.0	0.000799	40.5780000687
1120.0	0.0008025	40.625
1120.0	0.0008028	40.6720001698
1120.0	0.000801	40.7030000687
1120.0	0.0008	40.75
1120.0	0.0008	40.7810001373
1120.0	0.0008028	40.8280000687
1120.0	0.0008025	40.875
1120.0	0.0007998	40.9060001373
1120.0	0.0007993	40.9530000687
1120.0	0.0007993	41.0
1120.0	0.0008025	41.0310001373
1120.0	0.000801	41.0780000687
1120.0	0.000801	41.109000206
1120.0	0.0008015	41.1560001373
1120.0	0.0008035	41.2030000687
1120.0	0.0008028	41.234000206
1120.0	0.0008	41.2810001373
1120.0	0.0007998	41.3280000687
1120.0	0.0008005	41.359000206
1120.0	0.0008018	41.4060001373
1120.0	0.0008025	41.4530000687
1120.0	0.0007998	41.484000206
1120.0	0.0007998	41.5310001373
1120.0	0.0007988	41.5620000362
1120.0	0.0008018	41.609000206
1120.0	0.0007998	41.6560001373
1120.0	0.0007998	41.6870000362
1120.0	0.0008	41.734000206
1120.0	0.0008023	41.7650001049
1130.0	0.0008065	42.0470001698
1130.0	0.0008063	42.0780000687
1130.0	0.0008075	42.125
1130.0	0.0008125	42.1560001373
1130.0	0.0008135	42.2030000687
1130.0	0.0008115	42.25
1130.0	0.0008118	42.2810001373
1130.0	0.0008123	42.3280000687
1130.0	0.0008153	42.375
1130.0	0.000816	42.4060001373
1130.0	0.000814	42.4530000687
1130.0	0.0008135	42.5
1130.0	0.0008165	42.5310001373
1130.0	0.0008165	42.5780000687
1130.0	0.000814	42.609000206
1130.0	0.0008128	42.6560001373
1130.0	0.0008135	42.7030000687
1130.0	0.0008168	42.734000206
1130.0	0.0008175	42.7810001373
1130.0	0.0008153	42.8280000687
1130.0	0.0008153	42.859000206
1130.0	0.0008135	42.9060001373
1130.0	0.0008168	42.9370000362
1130.0	0.0008165	42.984000206
1130.0	0.000814	43.0310001373
1130.0	0.0008135	43.0620000362
1130.0	0.0008173	43.109000206
1130.0	0.0008165	43.1560001373
1130.0	0.000814	43.1870000362
1130.0	0.000814	43.234000206
1130.0	0.0008143	43.2650001049
1130.0	0.0008168	43.3120000362
1130.0	0.0008168	43.359000206
1130.0	0.000814	43.3900001049
1130.0	0.000814	43.4370000362
1130.0	0.0008143	43.484000206
1130.0	0.0008165	43.5150001049
1140.0	0.0008205	43.7810001373
1140.0	0.0008198	43.8280000687
1140.0	0.0008248	43.875
1140.0	0.0008255	43.9060001373
1140.0	0.0008265	43.9530000687
1140.0	0.000825	44.0
1140.0	0.000826	44.0310001373
1140.0	0.0008273	44.0780000687
1140.0	0.0008298	44.125
1140.0	0.0008303	44.1560001373
1140.0	0.0008285	44.2030000687
1140.0	0.000829	44.234000206
1140.0	0.0008298	44.2810001373
1140.0	0.0008325	44.3280000687
1140.0	0.0008298	44.359000206
1140.0	0.0008303	44.4060001373
1140.0	0.00083	44.4530000687
1140.0	0.0008318	44.484000206
1140.0	0.0008335	44.5310001373
1140.0	0.000831	44.5780000687
1140.0	0.0008313	44.609000206
1140.0	0.00083	44.6560001373
1140.0	0.0008335	44.6870000362
1140.0	0.0008315	44.734000206
1140.0	0.000831	44.7810001373
1140.0	0.000831	44.8120000362
1140.0	0.000834	44.859000206
1140.0	0.0008348	44.9060001373
1140.0	0.0008313	44.9370000362
1140.0	0.0008305	44.984000206
1140.0	0.0008305	45.0150001049
1140.0	0.0008323	45.0620000362
1140.0	0.0008323	45.109000206
1140.0	0.0008298	45.1400001049
1140.0	0.0008298	45.1870000362
1140.0	0.0008305	45.234000206
1140.0	0.0008323	45.2650001049
1150.0	0.0008338	45.5310001373
1150.0	0.0008338	45.5780000687
1150.0	0.000834	45.625
1150.0	0.000836	45.6560001373
1150.0	0.000839	45.7030000687
1150.0	0.0008398	45.75
1150.0	0.0008378	45.7810001373
1150.0	0.0008375	45.8280000687
1150.0	0.0008413	45.875
1150.0	0.0008403	45.9060001373
1150.0	0.0008388	45.9530000687
1150.0	0.0008388	45.984000206
1150.0	0.0008393	46.0310001373
1150.0	0.000841	46.0780000687
1150.0	0.0008415	46.109000206
1150.0	0.0008385	46.1560001373
1150.0	0.000838	46.2030000687
1150.0	0.0008403	46.234000206
1150.0	0.0008413	46.2810001373
1150.0	0.0008415	46.3280000687
1150.0	0.0008385	46.359000206
1150.0	0.000838	46.4060001373
1150.0	0.000841	46.4370000362
1150.0	0.0008413	46.484000206
1150.0	0.0008385	46.5310001373
1150.0	0.0008385	46.5620000362
1150.0	0.0008378	46.609000206
1150.0	0.0008403	46.6400001049
1150.0	0.0008398	46.6870000362
1150.0	0.0008378	46.734000206
1150.0	0.0008378	46.7650001049
1150.0	0.000838	46.8120000362
1150.0	0.0008398	46.859000206
1150.0	0.0008405	46.8900001049
1150.0	0.0008378	46.9370000362
1150.0	0.0008385	46.984000206
1150.0	0.000841	47.0150001049
1160.0	0.0008438	47.2810001373
1160.0	0.0008428	47.3280000687
1160.0	0.0008438	47.375
1160.0	0.000848	47.4060001373
1160.0	0.000849	47.4530000687
1160.0	0.0008473	47.484000206
1160.0	0.0008475	47.5310001373
1160.0	0.0008473	47.5780000687
1160.0	0.0008515	47.609000206
1160.0	0.0008488	47.6560001373
1160.0	0.0008488	47.7030000687
1160.0	0.0008488	47.734000206
1160.0	0.0008515	47.7810001373
1160.0	0.000851	47.8120000362
1160.0	0.0008488	47.859000206
1160.0	0.0008488	47.9060001373
1160.0	0.0008485	47.9370000362
1160.0	0.0008518	47.984000206
1160.0	0.0008525	48.0310001373
1160.0	0.0008498	48.0620000362
1160.0	0.0008485	48.109000206
1160.0	0.0008493	48.1400001049
1160.0	0.0008493	48.1870000362
1160.0	0.0008523	48.234000206
1160.0	0.00085	48.2810001373
1160.0	0.0008498	48.3120000362
1160.0	0.00085	48.359000206
1160.0	0.000853	48.3900001049
1160.0	0.0008498	48.4370000362
1160.0	0.0008528	48.484000206
1160.0	0.00085	48.5310001373
1160.0	0.00085	48.5620000362
1160.0	0.0008498	48.609000206
1160.0	0.0008528	48.6560001373
1160.0	0.0008503	48.6870000362
1160.0	0.00085	48.734000206
1160.0	0.0008493	48.7650001049
1170.0	0.0008535	49.0470001698
1170.0	0.000856	49.0780000687
1170.0	0.0008555	49.125
1170.0	0.000856	49.1720001698
1170.0	0.0008565	49.2030000687
1170.0	0.0008593	49.25
1170.0	0.0008598	49.2970001698
1170.0	0.0008575	49.3280000687
1170.0	0.0008573	49.375
1170.0	0.0008578	49.4060001373
1170.0	0.0008603	49.4530000687
1170.0	0.0008573	49.5
1170.0	0.0008573	49.5470001698
1170.0	0.0008573	49.5780000687
1170.0	0.0008573	49.625
1170.0	0.000859	49.6560001373
1170.0	0.0008598	49.7030000687
1170.0	0.0008565	49.75
1170.0	0.0008565	49.7810001373
1170.0	0.000856	49.8280000687
1170.0	0.0008593	49.875
1170.0	0.0008578	49.9060001373
1170.0	0.0008563	49.9530000687
1170.0	0.0008553	50.0
1170.0	0.0008593	50.0310001373
1170.0	0.000859	50.0780000687
1170.0	0.0008565	50.109000206
1170.0	0.0008565	50.1560001373
1170.0	0.0008573	50.2030000687
1170.0	0.0008593	50.234000206
1170.0	0.0008555	50.2810001373
1170.0	0.0008563	50.3280000687
1170.0	0.0008563	50.359000206
1170.0	0.0008573	50.4060001373
1170.0	0.0008588	50.4370000362
1170.0	0.000856	50.484000206
1170.0	0.000856	50.5310001373
1180.0	0.0008568	50.8120000362
1180.0	0.0008585	50.8430001736
1180.0	0.0008588	50.8900001049
1180.0	0.0008603	50.9370000362
1180.0	0.000863	50.9680001736
1180.0	0.0008643	51.0150001049
1180.0	0.0008628	51.0620000362
1180.0	0.000863	51.0930001736
1180.0	0.0008655	51.1400001049
1180.0	0.0008675	51.1720001698
1180.0	0.0008678	51.2180001736
1180.0	0.0008648	51.2650001049
1180.0	0.000866	51.2970001698
1180.0	0.0008673	51.3430001736
1180.0	0.000868	51.3900001049
1180.0	0.0008653	51.4220001698
1180.0	0.0008653	51.4680001736
1180.0	0.000865	51.5
1180.0	0.000869	51.5470001698
1180.0	0.000869	51.5930001736
1180.0	0.0008665	51.625
1180.0	0.0008668	51.6720001698
1180.0	0.000868	51.7180001736
1180.0	0.0008698	51.75
1180.0	0.0008698	51.7970001698
1180.0	0.000866	51.8280000687
1180.0	0.000866	51.875
1180.0	0.000869	51.9220001698
1180.0	0.0008678	51.9530000687
1180.0	0.0008668	52.0
1180.0	0.0008668	52.0470001698
1180.0	0.0008665	52.0780000687
1180.0	0.0008705	52.125
1180.0	0.0008703	52.1720001698
1180.0	0.0008678	52.2030000687
1180.0	0.0008673	52.25
1180.0	0.0008675	52.2810001373
1190.0	0.0008688	52.5620000362
1190.0	0.0008723	52.5930001736
1190.0	0.0008703	52.6400001049
1190.0	0.0008718	52.6870000362
1190.0	0.000873	52.734000206
1190.0	0.0008755	52.7650001049
1190.0	0.0008765	52.8120000362
1190.0	0.0008738	52.8430001736
1190.0	0.000874	52.8900001049
1190.0	0.0008763	52.9370000362
1190.0	0.0008773	52.9680001736
1190.0	0.0008773	53.0150001049
1190.0	0.0008743	53.0620000362
1190.0	0.0008748	53.0930001736
1190.0	0.000873	53.1400001049
1190.0	0.0008768	53.1720001698
1190.0	0.0008725	53.2180001736
1190.0	0.0008723	53.2650001049
1190.0	0.000874	53.2970001698
1190.0	0.000875	53.3430001736
1190.0	0.0008748	53.3900001049
1190.0	0.0008718	53.4220001698
1190.0	0.0008718	53.4680001736
1190.0	0.000873	53.5
1190.0	0.0008748	53.5470001698
1190.0	0.0008735	53.5930001736
1190.0	0.0008723	53.625
1190.0	0.0008725	53.6720001698
1190.0	0.0008735	53.7180001736
1190.0	0.0008748	53.75
1190.0	0.0008725	53.7970001698
1190.0	0.0008723	53.8430001736
1190.0	0.000871	53.875
1190.0	0.0008748	53.9220001698
1190.0	0.0008755	53.9530000687
1190.0	0.0008728	54.0
1190.0	0.0008723	54.0470001698
1200.0	0.0008753	54.3120000362
1200.0	0.000879	54.359000206
1200.0	0.0008773	54.3900001049
1200.0	0.0008773	54.4370000362
1200.0	0.0008775	54.484000206
1200.0	0.0008813	54.5150001049
1200.0	0.0008815	54.5620000362
1200.0	0.0008798	54.5930001736
1200.0	0.00088	54.6400001049
1200.0	0.0008813	54.6870000362
1200.0	0.000883	54.7180001736
1200.0	0.000884	54.7650001049
1200.0	0.0008815	54.8120000362
1200.0	0.0008818	54.8430001736
1200.0	0.000883	54.8900001049
1200.0	0.0008848	54.9220001698
1200.0	0.0008818	54.9680001736
1200.0	0.0008815	55.0150001049
1200.0	0.0008828	55.0470001698
1200.0	0.0008853	55.0930001736
1200.0	0.000886	55.1400001049
1200.0	0.0008828	55.1720001698
1200.0	0.0008835	55.2180001736
1200.0	0.000884	55.25
1200.0	0.000886	55.2970001698
1200.0	0.0008863	55.3430001736
1200.0	0.000883	55.375
1200.0	0.0008825	55.4220001698
1200.0	0.0008835	55.4680001736
1200.0	0.000885	55.5
1200.0	0.0008815	55.5470001698
1200.0	0.0008815	55.5930001736
1200.0	0.0008823	55.625
1200.0	0.000885	55.6720001698
1200.0	0.000885	55.7030000687
1200.0	0.0008815	55.75
1200.0	0.000881	55.7970001698
1210.0	0.0008825	56.0620000362
1210.0	0.0008865	56.0930001736
1210.0	0.0008848	56.1400001049
1210.0	0.000886	56.1870000362
1210.0	0.0008868	56.2180001736
1210.0	0.0008903	56.2650001049
1210.0	0.0008898	56.2970001698
1210.0	0.0008885	56.3430001736
1210.0	0.0008888	56.3900001049
1210.0	0.0008915	56.4220001698
1210.0	0.0008915	56.4680001736
1210.0	0.0008885	56.5150001049
1210.0	0.000888	56.5470001698
1210.0	0.0008915	56.5930001736
1210.0	0.000888	56.6400001049
1210.0	0.0008905	56.6720001698
1210.0	0.0008898	56.7180001736
1210.0	0.000888	56.7650001049
1210.0	0.0008878	56.7970001698
1210.0	0.000891	56.8430001736
1210.0	0.0008903	56.8900001049
1210.0	0.000888	56.9220001698
1210.0	0.0008878	56.9680001736
1210.0	0.0008873	57.0
1210.0	0.000886	57.0470001698
1210.0	0.0008873	57.0930001736
1210.0	0.000886	57.125
1210.0	0.0008865	57.1720001698
1210.0	0.000888	57.2180001736
1210.0	0.0008893	57.25
1210.0	0.0008898	57.2970001698
1210.0	0.0008873	57.3280000687
1210.0	0.0008878	57.375
1210.0	0.000889	57.4220001698
1210.0	0.0008915	57.4530000687
1210.0	0.0008888	57.5
1210.0	0.0008888	57.5470001698
1220.0	0.0008913	57.8120000362
1220.0	0.0008948	57.8430001736
1220.0	0.0008948	57.8900001049
1220.0	0.0008935	57.9370000362
1220.0	0.000895	57.9680001736
1220.0	0.0008973	58.0150001049
1220.0	0.000896	58.0470001698
1220.0	0.0008948	58.0930001736
1220.0	0.000895	58.1400001049
1220.0	0.0009	58.1870000362
1220.0	0.0009	58.2180001736
1220.0	0.0008985	58.2650001049
1220.0	0.000899	58.3120000362
1220.0	0.0008978	58.3430001736
1220.0	0.0008978	58.3900001049
1220.0	0.0009015	58.4370000362
1220.0	0.000899	58.484000206
1220.0	0.000901	58.5150001049
1220.0	0.000901	58.5620000362
1220.0	0.0008978	58.5930001736
1220.0	0.0008978	58.6400001049
1220.0	0.0009003	58.6870000362
1220.0	0.0009	58.7180001736
1220.0	0.0008978	58.7650001049
1220.0	0.0008978	58.8120000362
1220.0	0.0008978	58.8430001736
1220.0	0.0008965	58.8900001049
1220.0	0.0008985	58.9220001698
1220.0	0.0008973	58.9680001736
1220.0	0.0008973	59.0150001049
1220.0	0.0008985	59.0470001698
1220.0	0.0009	59.0930001736
1220.0	0.0009005	59.1400001049
1220.0	0.0008978	59.1720001698
1220.0	0.000899	59.2180001736
1220.0	0.000899	59.2650001049
1230.0	0.0008985	59.5310001373
1230.0	0.0009028	59.5620000362
1230.0	0.000901	59.609000206
1230.0	0.0009015	59.6560001373
1230.0	0.0009043	59.6870000362
1230.0	0.000905	59.734000206
1230.0	0.0009025	59.7810001373
1230.0	0.000903	59.8120000362
1230.0	0.0009023	59.859000206
1230.0	0.0009068	59.8900001049
1230.0	0.0009065	59.9370000362
1230.0	0.0009043	59.984000206
1230.0	0.000904	60.0150001049
1230.0	0.0009085	60.0620000362
1230.0	0.0009085	60.109000206
1230.0	0.0009053	60.1400001049
1230.0	0.0009053	60.1870000362
1230.0	0.0009063	60.234000206
1230.0	0.000908	60.2650001049
1230.0	0.000909	60.3120000362
1230.0	0.0009098	60.359000206
1230.0	0.000906	60.3900001049
1230.0	0.0009063	60.4370000362
1230.0	0.000906	60.484000206
1230.0	0.0009088	60.5150001049
1230.0	0.000906	60.5620000362
1230.0	0.0009063	60.609000206
1230.0	0.0009065	60.6400001049
1230.0	0.0009068	60.6870000362
1230.0	0.0009078	60.734000206
1230.0	0.0009098	60.7650001049
1230.0	0.0009073	60.8120000362
1230.0	0.0009078	60.8430001736
1230.0	0.000909	60.8900001049
1230.0	0.000911	60.9370000362
1230.0	0.0009115	60.9680001736
1230.0	0.0009078	61.0150001049
1240.0	0.0009085	61.2810001373
1240.0	0.0009128	61.3280000687
1240.0	0.0009113	61.375
1240.0	0.0009148	61.4060001373
1240.0	0.0009115	61.4530000687
1240.0	0.0009125	61.5
1240.0	0.0009165	61.5310001373
1240.0	0.000915	61.5780000687
1240.0	0.0009138	61.609000206
1240.0	0.0009135	61.6560001373
1240.0	0.000914	61.7030000687
1240.0	0.0009163	61.734000206
1240.0	0.0009163	61.7810001373
1240.0	0.0009135	61.8120000362
1240.0	0.0009135	61.859000206
1240.0	0.000916	61.9060001373
1240.0	0.0009155	61.9370000362
1240.0	0.0009123	61.984000206
1240.0	0.000913	62.0310001373
1240.0	0.0009143	62.0620000362
1240.0	0.0009168	62.109000206
1240.0	0.0009143	62.1560001373
1240.0	0.000916	62.1870000362
1240.0	0.000914	62.234000206
1240.0	0.0009135	62.2810001373
1240.0	0.000915	62.3120000362
1240.0	0.000916	62.359000206
1240.0	0.000915	62.4060001373
1240.0	0.0009125	62.4370000362
1240.0	0.0009123	62.484000206
1240.0	0.0009155	62.5150001049
1240.0	0.000915	62.5620000362
1240.0	0.0009125	62.609000206
1240.0	0.0009123	62.6400001049
1240.0	0.000913	62.6870000362
1240.0	0.0009155	62.734000206
1250.0	0.0009163	63.0
1250.0	0.0009163	63.0310001373
1250.0	0.0009188	63.0780000687
1250.0	0.0009215	63.125
1250.0	0.0009188	63.1720001698
1250.0	0.0009198	63.2030000687
1250.0	0.00092	63.25
1250.0	0.0009203	63.2810001373
1250.0	0.0009238	63.3280000687
1250.0	0.000921	63.375
1250.0	0.000924	63.4220001698
1250.0	0.0009223	63.4530000687
1250.0	0.0009223	63.5
1250.0	0.0009223	63.5310001373
1250.0	0.0009255	63.5780000687
1250.0	0.0009248	63.625
1250.0	0.0009225	63.6560001373
1250.0	0.0009228	63.7030000687
1250.0	0.0009228	63.75
1250.0	0.0009255	63.7810001373
1250.0	0.0009235	63.8280000687
1250.0	0.0009235	63.859000206
1250.0	0.0009235	63.9060001373
1250.0	0.0009263	63.9530000687
1250.0	0.000926	63.984000206
1250.0	0.000923	64.0310001373
1250.0	0.000923	64.0780000687
1250.0	0.0009248	64.109000206
1250.0	0.0009265	64.1560001373
1250.0	0.0009228	64.1870000362
1250.0	0.0009228	64.234000206
1250.0	0.0009228	64.2810001373
1250.0	0.000926	64.3120000362
1250.0	0.0009248	64.359000206
1250.0	0.0009228	64.4060001373
1250.0	0.0009218	64.4370000362
1250.0	0.0009218	64.484000206
1260.0	0.0009223	64.75
1260.0	0.0009248	64.7970001698
1260.0	0.0009248	64.8280000687
1260.0	0.0009265	64.875
1260.0	0.0009298	64.9060001373
1260.0	0.00093	64.9530000687
1260.0	0.0009273	65.0
1260.0	0.0009273	65.0310001373
1260.0	0.0009255	65.0780000687
1260.0	0.0009298	65.125
1260.0	0.000929	65.1560001373
1260.0	0.000926	65.2030000687
1260.0	0.0009278	65.234000206
1260.0	0.0009288	65.2810001373
1260.0	0.0009298	65.3280000687
1260.0	0.0009273	65.359000206
1260.0	0.0009268	65.4060001373
1260.0	0.0009273	65.4530000687
1260.0	0.0009305	65.484000206
1260.0	0.0009303	65.5310001373
1260.0	0.0009285	65.5620000362
1260.0	0.0009288	65.609000206
1260.0	0.0009288	65.6560001373
1260.0	0.0009323	65.6870000362
1260.0	0.0009288	65.734000206
1260.0	0.0009285	65.7810001373
1260.0	0.000929	65.8280000687
1260.0	0.00093	65.859000206
1260.0	0.0009318	65.9060001373
1260.0	0.0009298	65.9370000362
1260.0	0.0009288	65.984000206
1260.0	0.0009285	66.0310001373
1260.0	0.0009293	66.0620000362
1260.0	0.0009313	66.109000206
1260.0	0.0009285	66.1560001373
1260.0	0.0009285	66.1870000362
1260.0	0.0009293	66.234000206
1270.0	0.000931	66.5
1270.0	0.0009325	66.5470001698
1270.0	0.000934	66.5780000687
1270.0	0.000934	66.625
1270.0	0.000934	66.6720001698
1270.0	0.000938	66.7030000687
1270.0	0.0009385	66.75
1270.0	0.000936	66.7970001698
1270.0	0.000936	66.8280000687
1270.0	0.0009355	66.875
1270.0	0.0009398	66.9060001373
1270.0	0.0009385	66.9530000687
1270.0	0.0009348	67.0
1270.0	0.0009348	67.0310001373
1270.0	0.0009385	67.0780000687
1270.0	0.0009375	67.125
1270.0	0.000935	67.1560001373
1270.0	0.000935	67.2030000687
1270.0	0.000935	67.25
1270.0	0.0009378	67.2810001373
1270.0	0.0009373	67.3280000687
1270.0	0.0009348	67.359000206
1270.0	0.0009348	67.4060001373
1270.0	0.0009353	67.4530000687
1270.0	0.0009385	67.484000206
1270.0	0.000935	67.5310001373
1270.0	0.0009348	67.5780000687
1270.0	0.0009338	67.609000206
1270.0	0.0009368	67.6560001373
1270.0	0.0009365	67.6870000362
1270.0	0.0009335	67.734000206
1270.0	0.000933	67.7810001373
1270.0	0.0009343	67.8120000362
1270.0	0.0009373	67.859000206
1270.0	0.000934	67.9060001373
1270.0	0.0009328	67.9370000362
1270.0	0.0009328	67.984000206
1280.0	0.000934	68.25
1280.0	0.0009348	68.2970001698
1280.0	0.0009385	68.3280000687
1280.0	0.0009353	68.375
1280.0	0.0009368	68.4220001698
1280.0	0.0009385	68.4530000687
1280.0	0.0009403	68.5
1280.0	0.0009373	68.5470001698
1280.0	0.0009373	68.5780000687
1280.0	0.0009368	68.625
1280.0	0.000941	68.6560001373
1280.0	0.0009398	68.7030000687
1280.0	0.0009378	68.75
1280.0	0.0009375	68.7810001373
1280.0	0.0009393	68.8280000687
1280.0	0.0009418	68.875
1280.0	0.0009423	68.9060001373
1280.0	0.000939	68.9530000687
1280.0	0.0009388	69.0
1280.0	0.0009415	69.0310001373
1280.0	0.0009398	69.0780000687
1280.0	0.0009378	69.109000206
1280.0	0.0009378	69.1560001373
1280.0	0.0009393	69.2030000687
1280.0	0.0009413	69.234000206
1280.0	0.0009415	69.2810001373
1280.0	0.000939	69.3120000362
1280.0	0.000939	69.359000206
1280.0	0.0009415	69.4060001373
1280.0	0.0009428	69.4370000362
1280.0	0.0009425	69.484000206
1280.0	0.0009398	69.5310001373
1280.0	0.00094	69.5620000362
1280.0	0.0009435	69.609000206
1280.0	0.0009423	69.6560001373
1280.0	0.0009398	69.6870000362
1280.0	0.000938	69.734000206
1290.0	0.000939	70.0
1290.0	0.0009403	70.0470001698
1290.0	0.0009385	70.0780000687
1290.0	0.0009385	70.125
1290.0	0.000938	70.1560001373
1290.0	0.0009418	70.2030000687
1290.0	0.0009398	70.25
1290.0	0.000939	70.2810001373
1290.0	0.0009398	70.3280000687
1290.0	0.0009393	70.375
1290.0	0.0009423	70.4060001373
1290.0	0.0009398	70.4530000687
1290.0	0.0009385	70.484000206
1290.0	0.000938	70.5310001373
1290.0	0.0009418	70.5780000687
1290.0	0.0009398	70.609000206
1290.0	0.0009385	70.6560001373
1290.0	0.0009385	70.7030000687
1290.0	0.000938	70.734000206
1290.0	0.0009405	70.7810001373
1290.0	0.0009405	70.8120000362
1290.0	0.0009375	70.859000206
1290.0	0.0009378	70.9060001373
1290.0	0.000938	70.9370000362
1290.0	0.0009418	70.984000206
1290.0	0.0009385	71.0310001373
1290.0	0.0009373	71.0620000362
1290.0	0.0009388	71.109000206
1290.0	0.000941	71.1400001049
1290.0	0.0009413	71.1870000362
1290.0	0.000938	71.234000206
1290.0	0.0009375	71.2650001049
1290.0	0.0009393	71.3120000362
1290.0	0.0009405	71.359000206
1290.0	0.0009398	71.3900001049
1290.0	0.0009378	71.4370000362
1290.0	0.0009385	71.4680001736
1300.0	0.0009378	71.75
1300.0	0.000938	71.7810001373
1300.0	0.0009373	71.8280000687
1300.0	0.0009368	71.875
1300.0	0.0009403	71.9060001373
1300.0	0.00094	71.9530000687
1300.0	0.0009398	71.984000206
1300.0	0.0009375	72.0310001373
1300.0	0.0009393	72.0780000687
1300.0	0.000941	72.109000206
1300.0	0.000941	72.1560001373
1300.0	0.0009375	72.1870000362
1300.0	0.0009378	72.234000206
1300.0	0.000938	72.2810001373
1300.0	0.0009413	72.3120000362
1300.0	0.0009373	72.359000206
1300.0	0.0009378	72.4060001373
1300.0	0.0009405	72.4530000687
1300.0	0.00094	72.484000206
1300.0	0.0009415	72.5310001373
1300.0	0.000941	72.5620000362
1300.0	0.0009385	72.609000206
1300.0	0.0009385	72.6560001373
1300.0	0.0009375	72.6870000362
1300.0	0.0009415	72.734000206
1300.0	0.0009385	72.7810001373
1300.0	0.0009385	72.8120000362
1300.0	0.000938	72.859000206
1300.0	0.0009415	72.8900001049
1300.0	0.000941	72.9370000362
1300.0	0.0009403	72.984000206
1300.0	0.0009373	73.0150001049
1300.0	0.000936	73.0620000362
1300.0	0.0009388	73.109000206
1300.0	0.0009388	73.1400001049
1300.0	0.0009348	73.1870000362
1300.0	0.0009348	73.2180001736
1310.0	0.0009305	73.5
1310.0	0.0009335	73.5310001373
1310.0	0.0009323	73.5780000687
1310.0	0.000929	73.625
1310.0	0.0009293	73.6560001373
1310.0	0.000931	73.7030000687
1310.0	0.000929	73.75
1310.0	0.0009265	73.7810001373
1310.0	0.0009263	73.8280000687
1310.0	0.0009268	73.875
1310.0	0.0009298	73.9060001373
1310.0	0.0009298	73.9530000687
1310.0	0.0009273	73.984000206
1310.0	0.0009265	74.0310001373
1310.0	0.0009268	74.0780000687
1310.0	0.0009303	74.109000206
1310.0	0.0009298	74.1560001373
1310.0	0.0009273	74.2030000687
1310.0	0.0009285	74.234000206
1310.0	0.000931	74.2810001373
1310.0	0.000931	74.3280000687
1310.0	0.0009305	74.359000206
1310.0	0.000928	74.4060001373
1310.0	0.000928	74.4530000687
1310.0	0.000928	74.484000206
1310.0	0.0009323	74.5310001373
1310.0	0.00093	74.5620000362
1310.0	0.000929	74.609000206
1310.0	0.0009285	74.6560001373
1310.0	0.0009298	74.6870000362
1310.0	0.0009298	74.734000206
1310.0	0.000929	74.7810001373
1310.0	0.0009285	74.8120000362
1310.0	0.000929	74.859000206
1310.0	0.000931	74.8900001049
1310.0	0.0009323	74.9370000362
1310.0	0.0009298	74.984000206
1320.0	0.0009278	75.25
1320.0	0.0009253	75.2970001698
1320.0	0.0009248	75.3280000687
1320.0	0.0009235	75.375
1320.0	0.0009198	75.4220001698
1320.0	0.0009185	75.4530000687
1320.0	0.0009185	75.5
1320.0	0.00092	75.5310001373
1320.0	0.0009188	75.5780000687
1320.0	0.0009155	75.625
1320.0	0.0009148	75.6560001373
1320.0	0.000914	75.7030000687
1320.0	0.0009178	75.75
1320.0	0.0009148	75.7810001373
1320.0	0.000915	75.8280000687
1320.0	0.0009143	75.875
1320.0	0.000918	75.9060001373
1320.0	0.0009178	75.9530000687
1320.0	0.0009148	75.984000206
1320.0	0.000915	76.0310001373
1320.0	0.0009155	76.0780000687
1320.0	0.0009178	76.109000206
1320.0	0.0009143	76.1560001373
1320.0	0.000914	76.1870000362
1320.0	0.0009135	76.234000206
1320.0	0.0009173	76.2810001373
1320.0	0.000915	76.3120000362
1320.0	0.0009138	76.359000206
1320.0	0.000913	76.4060001373
1320.0	0.0009138	76.4370000362
1320.0	0.0009165	76.484000206
1320.0	0.0009148	76.5310001373
1320.0	0.0009128	76.5620000362
1320.0	0.0009128	76.609000206
1320.0	0.0009153	76.6400001049
1320.0	0.0009173	76.6870000362
1320.0	0.000914	76.734000206
1330.0	0.0009078	77.0
1330.0	0.0009053	77.0470001698
1330.0	0.0009053	77.0780000687
1330.0	0.0009005	77.125
1330.0	0.0008993	77.1720001698
1330.0	0.000898	77.2030000687
1330.0	0.0008988	77.25
1330.0	0.0009	77.2810001373
1330.0	0.000899	77.3280000687
1330.0	0.000896	77.375
1330.0	0.000896	77.4220001698
1330.0	0.0008978	77.4530000687
1330.0	0.0008975	77.5
1330.0	0.0008998	77.5470001698
1330.0	0.000896	77.5780000687
1330.0	0.0008985	77.625
1330.0	0.0008965	77.6720001698
1330.0	0.0008975	77.7030000687
1330.0	0.0008993	77.75
1330.0	0.0008975	77.7970001698
1330.0	0.0008968	77.8280000687
1330.0	0.0008975	77.875
1330.0	0.0008993	77.9060001373
1330.0	0.0009003	77.9530000687
1330.0	0.0008998	78.0
1330.0	0.0008975	78.0310001373
1330.0	0.0008978	78.0780000687
1330.0	0.0009013	78.125
1330.0	0.0009013	78.1560001373
1330.0	0.0008985	78.2030000687
1330.0	0.0008985	78.234000206
1330.0	0.000898	78.2810001373
1330.0	0.000901	78.3280000687
1330.0	0.0009003	78.359000206
1330.0	0.000896	78.4060001373
1330.0	0.0008965	78.4530000687
1340.0	0.0008878	78.7180001736
1340.0	0.0008843	78.7650001049
1340.0	0.0008813	78.7970001698
1340.0	0.000875	78.8430001736
1340.0	0.0008725	78.8900001049
1340.0	0.0008715	78.9220001698
1340.0	0.000873	78.9680001736
1340.0	0.0008713	79.0150001049
1340.0	0.000868	79.0470001698
1340.0	0.0008668	79.0930001736
1340.0	0.0008698	79.1400001049
1340.0	0.0008673	79.1720001698
1340.0	0.000869	79.2180001736
1340.0	0.000869	79.2650001049
1340.0	0.000866	79.2970001698
1340.0	0.0008655	79.3430001736
1340.0	0.0008693	79.3900001049
1340.0	0.0008673	79.4220001698
1340.0	0.000866	79.4680001736
1340.0	0.0008653	79.5
1340.0	0.0008678	79.5470001698
1340.0	0.000869	79.5930001736
1340.0	0.000869	79.625
1340.0	0.0008668	79.6720001698
1340.0	0.000868	79.7180001736
1340.0	0.0008703	79.75
1340.0	0.0008685	79.7970001698
1340.0	0.0008668	79.8280000687
1340.0	0.0008668	79.875
1340.0	0.0008688	79.9220001698
1340.0	0.0008698	79.9530000687
1340.0	0.0008693	80.0
1340.0	0.0008665	80.0470001698
1340.0	0.0008673	80.0780000687
1340.0	0.000869	80.125
1340.0	0.000871	80.1560001373
1340.0	0.0008705	80.2030000687
1350.0	0.0008603	80.4680001736
1350.0	0.0008528	80.5150001049
1350.0	0.0008518	80.5470001698
1350.0	0.0008465	80.5930001736
1350.0	0.000844	80.6400001049
1350.0	0.0008428	80.6720001698
1350.0	0.0008413	80.7180001736
1350.0	0.0008428	80.7650001049
1350.0	0.0008398	80.7970001698
1350.0	0.0008398	80.8430001736
1350.0	0.00084	80.875
1350.0	0.0008423	80.9220001698
1350.0	0.0008398	80.9680001736
1350.0	0.0008388	81.0
1350.0	0.0008385	81.0470001698
1350.0	0.000841	81.0930001736
1350.0	0.0008415	81.125
1350.0	0.000841	81.1720001698
1350.0	0.0008385	81.2180001736
1350.0	0.0008388	81.25
1350.0	0.0008403	81.2970001698
1350.0	0.0008398	81.3280000687
1350.0	0.0008373	81.375
1350.0	0.0008368	81.4220001698
1350.0	0.0008368	81.4530000687
1350.0	0.000839	81.5
1350.0	0.0008385	81.5470001698
1350.0	0.0008355	81.5780000687
1350.0	0.0008348	81.625
1350.0	0.0008375	81.6560001373
1350.0	0.0008388	81.7030000687
1350.0	0.0008385	81.75
1350.0	0.0008355	81.7810001373
1350.0	0.0008355	81.8280000687
1350.0	0.0008355	81.875
1350.0	0.0008375	81.9060001373
1350.0	0.0008353	81.9530000687
1360.0	0.0008225	82.2180001736
1360.0	0.000821	82.2650001049
1360.0	0.0008155	82.2970001698
1360.0	0.0008098	82.3430001736
1360.0	0.0008073	82.375
1360.0	0.0008065	82.4220001698
1360.0	0.0008065	82.4680001736
1360.0	0.0008023	82.5
1360.0	0.0008015	82.5470001698
1360.0	0.0008023	82.5930001736
1360.0	0.0008025	82.625
1360.0	0.000803	82.6720001698
1360.0	0.000803	82.7030000687
1360.0	0.000801	82.75
1360.0	0.0008005	82.7970001698
1360.0	0.000803	82.8280000687
1360.0	0.0007998	82.875
1360.0	0.0008	82.9220001698
1360.0	0.0007998	82.9530000687
1360.0	0.0008003	83.0
1360.0	0.0008003	83.0470001698
1360.0	0.0008028	83.0780000687
1360.0	0.0007998	83.125
1360.0	0.0008	83.1720001698
1360.0	0.0008015	83.2030000687
1360.0	0.0008038	83.25
1360.0	0.0008048	83.2970001698
1360.0	0.0008023	83.3280000687
1360.0	0.0008023	83.375
1360.0	0.000803	83.4060001373
1360.0	0.0008048	83.4530000687
1360.0	0.0008015	83.5
1360.0	0.000801	83.5470001698
1360.0	0.0008015	83.5780000687
1360.0	0.0008015	83.625
1360.0	0.0008048	83.6560001373
1360.0	0.0008048	83.7030000687
1370.0	0.0007928	83.9680001736
1370.0	0.0007868	84.0150001049
1370.0	0.000785	84.0620000362
1370.0	0.0007823	84.0930001736
1370.0	0.0007778	84.1400001049
1370.0	0.0007743	84.1870000362
1370.0	0.0007723	84.2180001736
1370.0	0.0007728	84.2650001049
1370.0	0.000774	84.2970001698
1370.0	0.000771	84.3430001736
1370.0	0.0007703	84.3900001049
1370.0	0.0007703	84.4220001698
1370.0	0.0007723	84.4680001736
1370.0	0.0007715	84.5150001049
1370.0	0.0007698	84.5470001698
1370.0	0.0007693	84.5930001736
1370.0	0.0007693	84.625
1370.0	0.0007718	84.6720001698
1370.0	0.0007715	84.7180001736
1370.0	0.000769	84.75
1370.0	0.0007685	84.7970001698
1370.0	0.0007693	84.8430001736
1370.0	0.0007703	84.875
1370.0	0.0007675	84.9220001698
1370.0	0.0007673	84.9530000687
1370.0	0.0007663	85.0
1370.0	0.0007698	85.0470001698
1370.0	0.0007685	85.0780000687
1370.0	0.0007685	85.125
1370.0	0.0007668	85.1720001698
1370.0	0.0007665	85.2030000687
1370.0	0.0007678	85.25
1370.0	0.0007678	85.2970001698
1370.0	0.0007655	85.3280000687
1370.0	0.0007653	85.375
1370.0	0.0007663	85.4060001373
1370.0	0.000769	85.4530000687
1380.0	0.0007563	85.7180001736
1380.0	0.000748	85.7650001049
1380.0	0.0007455	85.7970001698
1380.0	0.0007448	85.8430001736
1380.0	0.000741	85.8900001049
1380.0	0.000738	85.9220001698
1380.0	0.0007365	85.9680001736
1380.0	0.0007385	86.0150001049
1380.0	0.0007353	86.0470001698
1380.0	0.0007348	86.0930001736
1380.0	0.000734	86.125
1380.0	0.0007355	86.1720001698
1380.0	0.0007368	86.2180001736
1380.0	0.0007348	86.25
1380.0	0.000734	86.2970001698
1380.0	0.000735	86.3430001736
1380.0	0.0007368	86.375
1380.0	0.000736	86.4220001698
1380.0	0.000733	86.4530000687
1380.0	0.000733	86.5
1380.0	0.0007328	86.5470001698
1380.0	0.000736	86.5780000687
1380.0	0.0007348	86.625
1380.0	0.0007335	86.6720001698
1380.0	0.0007335	86.7030000687
1380.0	0.000735	86.75
1380.0	0.0007363	86.7810001373
1380.0	0.000736	86.8280000687
1380.0	0.0007353	86.875
1380.0	0.0007353	86.9060001373
1380.0	0.000736	86.9530000687
1380.0	0.000738	87.0
1380.0	0.0007378	87.0310001373
1380.0	0.000735	87.0780000687
1380.0	0.0007355	87.125
1380.0	0.0007373	87.1560001373
1380.0	0.0007353	87.2030000687
1390.0	0.0007268	87.4680001736
1390.0	0.0007235	87.5
1390.0	0.000719	87.5470001698
1390.0	0.0007148	87.5780000687
1390.0	0.0007128	87.625
1390.0	0.0007115	87.6720001698
1390.0	0.0007123	87.7030000687
1390.0	0.0007098	87.75
1390.0	0.0007073	87.7970001698
1390.0	0.0007063	87.8280000687
1390.0	0.0007065	87.875
1390.0	0.0007055	87.9060001373
1390.0	0.000705	87.9530000687
1390.0	0.000704	88.0
1390.0	0.0007043	88.0310001373
1390.0	0.0007073	88.0780000687
1390.0	0.000705	88.125
1390.0	0.0007048	88.1560001373
1390.0	0.0007048	88.2030000687
1390.0	0.000705	88.25
1390.0	0.0007078	88.2810001373
1390.0	0.0007063	88.3280000687
1390.0	0.000706	88.359000206
1390.0	0.0007048	88.4060001373
1390.0	0.0007065	88.4530000687
1390.0	0.000706	88.484000206
1390.0	0.000705	88.5310001373
1390.0	0.0007048	88.5780000687
1390.0	0.0007065	88.609000206
1390.0	0.0007073	88.6560001373
1390.0	0.0007053	88.6870000362
1390.0	0.000704	88.734000206
1390.0	0.0007038	88.7810001373
1390.0	0.0007055	88.8120000362
1390.0	0.0007073	88.859000206
1390.0	0.0007048	88.9060001373
1390.0	0.0007048	88.9370000362
1400.0	0.000695	89.2030000687
1400.0	0.0006943	89.25
1400.0	0.0006888	89.2970001698
1400.0	0.0006863	89.3280000687
1400.0	0.000686	89.375
1400.0	0.0006868	89.4060001373
1400.0	0.0006855	89.4530000687
1400.0	0.000684	89.5
1400.0	0.0006825	89.5310001373
1400.0	0.0006835	89.5780000687
1400.0	0.0006853	89.625
1400.0	0.0006848	89.6560001373
1400.0	0.0006825	89.7030000687
1400.0	0.0006823	89.734000206
1400.0	0.0006843	89.7810001373
1400.0	0.000685	89.8280000687
1400.0	0.0006835	89.859000206
1400.0	0.0006818	89.9060001373
1400.0	0.0006813	89.9530000687
1400.0	0.0006835	89.984000206
1400.0	0.000683	90.0310001373
1400.0	0.0006818	90.0620000362
1400.0	0.0006818	90.109000206
1400.0	0.0006828	90.1560001373
1400.0	0.000685	90.1870000362
1400.0	0.0006823	90.234000206
1400.0	0.0006828	90.2810001373
1400.0	0.0006825	90.3120000362
1400.0	0.0006818	90.359000206
1400.0	0.0006853	90.4060001373
1400.0	0.0006838	90.4370000362
1400.0	0.0006828	90.484000206
1400.0	0.0006828	90.5310001373
1400.0	0.000685	90.5620000362
1400.0	0.000686	90.609000206
1400.0	0.0006853	90.6560001373
1400.0	0.000683	90.6870000362
1410.0	0.0006763	90.9530000687
1410.0	0.000676	91.0
1410.0	0.0006728	91.0470001698
1410.0	0.0006685	91.0780000687
1410.0	0.0006665	91.125
1410.0	0.000668	91.1560001373
1410.0	0.0006675	91.2030000687
1410.0	0.000665	91.25
1410.0	0.0006643	91.2970001698
1410.0	0.0006635	91.3280000687
1410.0	0.000663	91.375
1410.0	0.0006655	91.4060001373
1410.0	0.0006648	91.4530000687
1410.0	0.0006623	91.5
1410.0	0.0006635	91.5470001698
1410.0	0.000663	91.5780000687
1410.0	0.000666	91.625
1410.0	0.000665	91.6720001698
1410.0	0.0006623	91.7030000687
1410.0	0.0006623	91.75
1410.0	0.0006635	91.7810001373
1410.0	0.0006648	91.8280000687
1410.0	0.0006625	91.875
1410.0	0.0006615	91.9060001373
1410.0	0.0006615	91.9530000687
1410.0	0.0006623	92.0
1410.0	0.0006628	92.0310001373
1410.0	0.0006603	92.0780000687
1410.0	0.0006605	92.109000206
1410.0	0.000661	92.1560001373
1410.0	0.0006625	92.2030000687
1410.0	0.000663	92.234000206
1410.0	0.0006625	92.2810001373
1410.0	0.000663	92.3280000687
1410.0	0.0006635	92.359000206
1410.0	0.000665	92.4060001373
1410.0	0.000665	92.4370000362
1420.0	0.0006593	92.7180001736
1420.0	0.0006578	92.75
1420.0	0.0006573	92.7970001698
1420.0	0.000656	92.8280000687
1420.0	0.0006535	92.875
1420.0	0.0006525	92.9220001698
1420.0	0.0006535	92.9530000687
1420.0	0.0006543	93.0
1420.0	0.0006518	93.0470001698
1420.0	0.000651	93.0780000687
1420.0	0.0006503	93.125
1420.0	0.0006525	93.1560001373
1420.0	0.0006503	93.2030000687
1420.0	0.0006503	93.25
1420.0	0.0006505	93.2810001373
1420.0	0.0006523	93.3280000687
1420.0	0.0006538	93.375
1420.0	0.0006515	93.4060001373
1420.0	0.0006513	93.4530000687
1420.0	0.0006513	93.484000206
1420.0	0.0006515	93.5310001373
1420.0	0.0006535	93.5780000687
1420.0	0.0006523	93.609000206
1420.0	0.0006513	93.6560001373
1420.0	0.000651	93.7030000687
1420.0	0.0006518	93.734000206
1420.0	0.000651	93.7810001373
1420.0	0.0006503	93.8120000362
1420.0	0.0006498	93.859000206
1420.0	0.0006518	93.9060001373
1420.0	0.0006523	93.9370000362
1420.0	0.0006518	93.984000206
1420.0	0.0006498	94.0310001373
1420.0	0.0006498	94.0620000362
1420.0	0.0006518	94.109000206
1420.0	0.0006505	94.1560001373
1420.0	0.0006525	94.1870000362
1430.0	0.0006473	94.4680001736
1430.0	0.000645	94.5
1430.0	0.0006453	94.5470001698
1430.0	0.0006448	94.5780000687
1430.0	0.0006435	94.625
1430.0	0.000641	94.6720001698
1430.0	0.0006428	94.7180001736
1430.0	0.000641	94.75
1430.0	0.0006425	94.7970001698
1430.0	0.0006398	94.8280000687
1430.0	0.0006398	94.875
1430.0	0.0006398	94.9220001698
1430.0	0.0006423	94.9530000687
1430.0	0.0006418	95.0
1430.0	0.0006398	95.0470001698
1430.0	0.0006398	95.0780000687
1430.0	0.0006398	95.125
1430.0	0.0006418	95.1560001373
1430.0	0.00064	95.2030000687
1430.0	0.00064	95.25
1430.0	0.0006398	95.2810001373
1430.0	0.0006413	95.3280000687
1430.0	0.0006423	95.375
1430.0	0.0006405	95.4060001373
1430.0	0.0006403	95.4530000687
1430.0	0.0006403	95.484000206
1430.0	0.0006415	95.5310001373
1430.0	0.0006428	95.5780000687
1430.0	0.00064	95.609000206
1430.0	0.0006405	95.6560001373
1430.0	0.0006403	95.7030000687
1430.0	0.0006415	95.734000206
1430.0	0.0006423	95.7810001373
1430.0	0.0006403	95.8120000362
1430.0	0.0006403	95.859000206
1430.0	0.0006413	95.9060001373
1430.0	0.0006435	95.9370000362
1440.0	0.0006418	96.2030000687
1440.0	0.0006393	96.25
1440.0	0.0006395	96.2970001698
1440.0	0.0006405	96.3280000687
1440.0	0.0006398	96.375
1440.0	0.0006393	96.4220001698
1440.0	0.0006403	96.4530000687
1440.0	0.000641	96.5
1440.0	0.0006398	96.5470001698
1440.0	0.0006393	96.5780000687
1440.0	0.0006393	96.625
1440.0	0.0006398	96.6560001373
1440.0	0.000641	96.7030000687
1440.0	0.0006398	96.75
1440.0	0.0006388	96.7810001373
1440.0	0.0006393	96.8280000687
1440.0	0.0006395	96.875
1440.0	0.0006398	96.9060001373
1440.0	0.0006398	96.9530000687
1440.0	0.0006393	96.984000206
1440.0	0.0006398	97.0310001373
1440.0	0.0006405	97.0780000687
1440.0	0.000641	97.109000206
1440.0	0.0006398	97.1560001373
1440.0	0.0006393	97.2030000687
1440.0	0.00064	97.234000206
1440.0	0.000641	97.2810001373
1440.0	0.0006403	97.3120000362
1440.0	0.0006388	97.359000206
1440.0	0.0006388	97.4060001373
1440.0	0.0006395	97.4370000362
1440.0	0.0006398	97.484000206
1440.0	0.0006388	97.5310001373
1440.0	0.0006388	97.5620000362
1440.0	0.0006378	97.609000206
1440.0	0.0006393	97.6400001049
1440.0	0.0006388	97.6870000362
1450.0	0.0006393	97.9530000687
1450.0	0.000639	98.0
1450.0	0.0006403	98.0310001373
1450.0	0.0006398	98.0780000687
1450.0	0.0006388	98.125
1450.0	0.0006393	98.1560001373
1450.0	0.00064	98.2030000687
1450.0	0.0006413	98.25
1450.0	0.0006398	98.2810001373
1450.0	0.0006393	98.3280000687
1450.0	0.00064	98.375
1450.0	0.0006418	98.4060001373
1450.0	0.0006403	98.4530000687
1450.0	0.0006398	98.484000206
1450.0	0.0006398	98.5310001373
1450.0	0.0006413	98.5780000687
1450.0	0.0006423	98.609000206
1450.0	0.0006415	98.6560001373
1450.0	0.0006405	98.6870000362
1450.0	0.0006403	98.734000206
1450.0	0.0006428	98.7810001373
1450.0	0.0006435	98.8120000362
1450.0	0.0006418	98.859000206
1450.0	0.0006405	98.9060001373
1450.0	0.0006415	98.9370000362
1450.0	0.000643	98.984000206
1450.0	0.0006413	99.0310001373
1450.0	0.0006415	99.0620000362
1450.0	0.0006413	99.109000206
1450.0	0.0006428	99.1400001049
1450.0	0.000644	99.1870000362
1450.0	0.0006428	99.234000206
1450.0	0.0006418	99.2650001049
1450.0	0.0006423	99.3120000362
1450.0	0.0006435	99.359000206
1450.0	0.0006443	99.3900001049
1460.0	0.0006455	99.6720001698
1460.0	0.0006443	99.7030000687
1460.0	0.000646	99.75
1460.0	0.0006473	99.7970001698
1460.0	0.0006498	99.8280000687
1460.0	0.0006478	99.875
1460.0	0.0006478	99.9220001698
1460.0	0.0006473	99.9530000687
1460.0	0.0006485	100.0
1460.0	0.00065	100.031000137
1460.0	0.0006498	100.078000069
1460.0	0.0006475	100.125
1460.0	0.00065	100.17200017
1460.0	0.0006485	100.203000069
1460.0	0.000651	100.25
1460.0	0.000651	100.29700017
1460.0	0.0006488	100.328000069
1460.0	0.000648	100.375
1460.0	0.0006488	100.406000137
1460.0	0.00065	100.453000069
1460.0	0.000649	100.5
1460.0	0.000648	100.531000137
1460.0	0.0006478	100.578000069
1460.0	0.00065	100.625
1460.0	0.0006503	100.656000137
1460.0	0.0006485	100.703000069
1460.0	0.0006485	100.734000206
1460.0	0.0006475	100.781000137
1460.0	0.0006505	100.828000069
1460.0	0.000649	100.859000206
1460.0	0.0006503	100.906000137
1460.0	0.0006485	100.953000069
1460.0	0.00065	100.984000206
1460.0	0.0006505	101.031000137
1460.0	0.0006485	101.062000036
1460.0	0.000648	101.109000206
1460.0	0.000648	101.156000137
1470.0	0.0006543	101.42200017
1470.0	0.0006553	101.453000069
1470.0	0.000656	101.5
1470.0	0.0006568	101.54700017
1470.0	0.0006593	101.578000069
1470.0	0.000661	101.625
1470.0	0.0006598	101.67200017
1470.0	0.0006598	101.703000069
1470.0	0.0006615	101.75
1470.0	0.000663	101.781000137
1470.0	0.0006613	101.828000069
1470.0	0.000661	101.875
1470.0	0.0006603	101.906000137
1470.0	0.0006618	101.953000069
1470.0	0.000663	102.0
1470.0	0.0006615	102.031000137
1470.0	0.0006618	102.078000069
1470.0	0.0006613	102.125
1470.0	0.000664	102.156000137
1470.0	0.0006618	102.203000069
1470.0	0.000661	102.234000206
1470.0	0.0006605	102.281000137
1470.0	0.0006615	102.328000069
1470.0	0.000664	102.359000206
1470.0	0.0006638	102.406000137
1470.0	0.0006618	102.437000036
1470.0	0.0006618	102.484000206
1470.0	0.000663	102.531000137
1470.0	0.000665	102.562000036
1470.0	0.0006648	102.609000206
1470.0	0.0006628	102.656000137
1470.0	0.0006625	102.687000036
1470.0	0.000665	102.734000206
1470.0	0.0006648	102.781000137
1470.0	0.0006623	102.812000036
1470.0	0.0006635	102.859000206
1470.0	0.0006625	102.906000137
1480.0	0.0006665	103.17200017
1480.0	0.0006688	103.203000069
1480.0	0.0006698	103.25
1480.0	0.0006703	103.29700017
1480.0	0.0006723	103.328000069
1480.0	0.0006748	103.375
1480.0	0.0006728	103.42200017
1480.0	0.0006725	103.453000069
1480.0	0.000674	103.5
1480.0	0.0006748	103.531000137
1480.0	0.0006753	103.578000069
1480.0	0.0006725	103.625
1480.0	0.0006718	103.656000137
1480.0	0.0006738	103.703000069
1480.0	0.000675	103.75
1480.0	0.0006728	103.781000137
1480.0	0.0006725	103.828000069
1480.0	0.0006735	103.875
1480.0	0.0006763	103.906000137
1480.0	0.0006763	103.953000069
1480.0	0.0006748	103.984000206
1480.0	0.000674	104.031000137
1480.0	0.0006735	104.078000069
1480.0	0.0006763	104.109000206
1480.0	0.000674	104.156000137
1480.0	0.0006738	104.203000069
1480.0	0.0006735	104.234000206
1480.0	0.0006725	104.281000137
1480.0	0.0006738	104.328000069
1480.0	0.0006753	104.359000206
1480.0	0.0006748	104.406000137
1480.0	0.0006725	104.437000036
1480.0	0.0006718	104.484000206
1480.0	0.0006753	104.531000137
1480.0	0.0006753	104.562000036
1480.0	0.0006735	104.609000206
1480.0	0.0006735	104.656000137
1490.0	0.0006785	104.92200017
1490.0	0.0006825	104.968000174
1490.0	0.0006813	105.0
1490.0	0.0006835	105.04700017
1490.0	0.0006838	105.093000174
1490.0	0.0006855	105.125
1490.0	0.000688	105.17200017
1490.0	0.0006873	105.203000069
1490.0	0.0006873	105.25
1490.0	0.0006868	105.29700017
1490.0	0.0006888	105.328000069
1490.0	0.00069	105.375
1490.0	0.0006885	105.42200017
1490.0	0.0006875	105.453000069
1490.0	0.0006873	105.5
1490.0	0.000691	105.531000137
1490.0	0.0006888	105.578000069
1490.0	0.000688	105.625
1490.0	0.0006878	105.656000137
1490.0	0.0006878	105.703000069
1490.0	0.0006875	105.75
1490.0	0.0006903	105.781000137
1490.0	0.0006885	105.828000069
1490.0	0.0006868	105.875
1490.0	0.0006863	105.906000137
1490.0	0.0006885	105.953000069
1490.0	0.000689	106.0
1490.0	0.0006865	106.031000137
1490.0	0.000686	106.078000069
1490.0	0.0006885	106.109000206
1490.0	0.0006875	106.156000137
1490.0	0.0006865	106.203000069
1490.0	0.0006855	106.234000206
1490.0	0.0006853	106.281000137
1490.0	0.0006868	106.328000069
1490.0	0.000688	106.359000206
1490.0	0.0006855	106.406000137
1500.0	0.0006915	106.67200017
1500.0	0.0006913	106.718000174
1500.0	0.0006928	106.75
1500.0	0.0006943	106.79700017
1500.0	0.0006923	106.843000174
1500.0	0.0006923	106.875
1500.0	0.0006935	106.92200017
1500.0	0.0006955	106.968000174
1500.0	0.000695	107.0
1500.0	0.000694	107.04700017
1500.0	0.0006938	107.093000174
1500.0	0.000695	107.125
1500.0	0.0006973	107.17200017
1500.0	0.000695	107.203000069
1500.0	0.0006948	107.25
1500.0	0.0006955	107.29700017
1500.0	0.0006965	107.328000069
1500.0	0.0006978	107.375
1500.0	0.0006955	107.42200017
1500.0	0.0006953	107.453000069
1500.0	0.000696	107.5
1500.0	0.0006978	107.531000137
1500.0	0.0006953	107.578000069
1500.0	0.0006953	107.625
1500.0	0.000695	107.656000137
1500.0	0.0006968	107.703000069
1500.0	0.0006988	107.75
1500.0	0.0006965	107.781000137
1500.0	0.0006965	107.828000069
1500.0	0.000696	107.859000206
1500.0	0.0006993	107.906000137
1500.0	0.0006975	107.953000069
1500.0	0.0006975	107.984000206
1500.0	0.0006963	108.031000137
1500.0	0.0006988	108.078000069
1500.0	0.0006973	108.125
1510.0	0.0006973	108.390000105
1510.0	0.0006998	108.437000036
1510.0	0.0006988	108.468000174
1510.0	0.0006985	108.515000105
1510.0	0.0006985	108.562000036
1510.0	0.0007013	108.593000174
1510.0	0.000699	108.640000105
1510.0	0.000699	108.687000036
1510.0	0.0006985	108.718000174
1510.0	0.0007005	108.765000105
1510.0	0.0007018	108.79700017
1510.0	0.0007015	108.843000174
1510.0	0.0007	108.890000105
1510.0	0.0006993	108.92200017
1510.0	0.0007003	108.968000174
1510.0	0.0007015	109.015000105
1510.0	0.0006998	109.04700017
1510.0	0.000699	109.093000174
1510.0	0.0007005	109.125
1510.0	0.0007013	109.17200017
1510.0	0.0006998	109.218000174
1510.0	0.000699	109.25
1510.0	0.000699	109.29700017
1510.0	0.000699	109.343000174
1510.0	0.0007018	109.375
1510.0	0.0006998	109.42200017
1510.0	0.0006998	109.453000069
1510.0	0.000699	109.5
1510.0	0.0007005	109.54700017
1510.0	0.0007018	109.578000069
1510.0	0.0007005	109.625
1510.0	0.0007005	109.67200017
1510.0	0.0007018	109.703000069
1510.0	0.0007023	109.75
1510.0	0.000701	109.79700017
1510.0	0.0007003	109.828000069
1510.0	0.0006998	109.875
1520.0	0.0007028	110.140000105
1520.0	0.0007035	110.187000036
1520.0	0.0007043	110.234000206
1520.0	0.0007035	110.265000105
1520.0	0.0007023	110.312000036
1520.0	0.0007043	110.359000206
1520.0	0.000704	110.390000105
1520.0	0.000704	110.437000036
1520.0	0.000704	110.484000206
1520.0	0.0007018	110.515000105
1520.0	0.0007023	110.562000036
1520.0	0.0007028	110.609000206
1520.0	0.0007048	110.640000105
1520.0	0.0007028	110.687000036
1520.0	0.0007025	110.718000174
1520.0	0.0007028	110.765000105
1520.0	0.000704	110.812000036
1520.0	0.000704	110.859000206
1520.0	0.0007015	110.890000105
1520.0	0.0007005	110.937000036
1520.0	0.0007005	110.968000174
1520.0	0.0007035	111.015000105
1520.0	0.000703	111.062000036
1520.0	0.0007028	111.109000206
1520.0	0.000701	111.140000105
1520.0	0.0007	111.187000036
1520.0	0.0006998	111.218000174
1520.0	0.000701	111.265000105
1520.0	0.0007025	111.312000036
1520.0	0.0007005	111.343000174
1520.0	0.000699	111.390000105
1520.0	0.0006998	111.437000036
1520.0	0.0007023	111.468000174
1520.0	0.0007	111.515000105
1520.0	0.0006998	111.562000036
1520.0	0.000699	111.593000174
1520.0	0.0007015	111.640000105
1530.0	0.000699	111.906000137
1530.0	0.0007005	111.953000069
1530.0	0.0006988	112.0
1530.0	0.000698	112.031000137
1530.0	0.0006978	112.078000069
1530.0	0.0006998	112.125
1530.0	0.0006978	112.156000137
1530.0	0.0006993	112.203000069
1530.0	0.0006965	112.234000206
1530.0	0.0006993	112.281000137
1530.0	0.0007003	112.328000069
1530.0	0.0006985	112.359000206
1530.0	0.0006985	112.406000137
1530.0	0.0006978	112.453000069
1530.0	0.0007003	112.484000206
1530.0	0.0007003	112.531000137
1530.0	0.0006998	112.562000036
1530.0	0.0006985	112.609000206
1530.0	0.0006978	112.656000137
1530.0	0.0007003	112.687000036
1530.0	0.0007013	112.734000206
1530.0	0.000699	112.781000137
1530.0	0.0006985	112.812000036
1530.0	0.0007005	112.859000206
1530.0	0.0007013	112.890000105
1530.0	0.0006998	112.937000036
1530.0	0.000699	112.984000206
1530.0	0.0006985	113.015000105
1530.0	0.0007005	113.062000036
1530.0	0.000699	113.109000206
1530.0	0.0007005	113.140000105
1530.0	0.0007	113.187000036
1530.0	0.000698	113.234000206
1530.0	0.000699	113.265000105
1530.0	0.0006993	113.312000036
1530.0	0.0006998	113.359000206
1530.0	0.0006973	113.390000105
1540.0	0.0006963	113.67200017
1540.0	0.0006923	113.718000174
1540.0	0.0006938	113.75
1540.0	0.000694	113.79700017
1540.0	0.0006915	113.828000069
1540.0	0.000691	113.875
1540.0	0.000691	113.92200017
1540.0	0.000693	113.953000069
1540.0	0.0006935	114.0
1540.0	0.0006915	114.04700017
1540.0	0.0006898	114.078000069
1540.0	0.0006903	114.125
1540.0	0.0006923	114.156000137
1540.0	0.0006915	114.203000069
1540.0	0.0006903	114.25
1540.0	0.0006905	114.281000137
1540.0	0.0006918	114.328000069
1540.0	0.0006935	114.375
1540.0	0.0006923	114.406000137
1540.0	0.000691	114.453000069
1540.0	0.0006915	114.484000206
1540.0	0.000693	114.531000137
1540.0	0.0006928	114.578000069
1540.0	0.0006923	114.609000206
1540.0	0.0006925	114.656000137
1540.0	0.0006918	114.703000069
1540.0	0.0006953	114.734000206
1540.0	0.0006948	114.781000137
1540.0	0.0006925	114.812000036
1540.0	0.0006935	114.859000206
1540.0	0.0006943	114.906000137
1540.0	0.000696	114.937000036
1540.0	0.000693	114.984000206
1540.0	0.0006935	115.031000137
1540.0	0.0006943	115.062000036
1540.0	0.0006943	115.109000206
1540.0	0.000694	115.140000105
1550.0	0.0006868	115.42200017
1550.0	0.000686	115.468000174
1550.0	0.000684	115.5
1550.0	0.000686	115.54700017
1550.0	0.0006853	115.593000174
1550.0	0.0006825	115.625
1550.0	0.0006818	115.67200017
1550.0	0.000681	115.718000174
1550.0	0.000683	115.75
1550.0	0.0006835	115.79700017
1550.0	0.0006813	115.828000069
1550.0	0.0006805	115.875
1550.0	0.0006823	115.92200017
1550.0	0.000683	115.953000069
1550.0	0.0006803	116.0
1550.0	0.0006823	116.04700017
1550.0	0.0006803	116.093000174
1550.0	0.0006813	116.125
1550.0	0.0006818	116.17200017
1550.0	0.0006828	116.203000069
1550.0	0.0006805	116.25
1550.0	0.00068	116.29700017
1550.0	0.0006798	116.328000069
1550.0	0.0006813	116.375
1550.0	0.000683	116.42200017
1550.0	0.000681	116.453000069
1550.0	0.0006805	116.5
1550.0	0.0006823	116.531000137
1550.0	0.0006823	116.578000069
1550.0	0.0006828	116.625
1550.0	0.000681	116.656000137
1550.0	0.0006805	116.703000069
1550.0	0.000683	116.734000206
1550.0	0.000681	116.781000137
1550.0	0.0006825	116.828000069
1550.0	0.0006813	116.859000206
1550.0	0.0006823	116.906000137
1560.0	0.0006768	117.187000036
1560.0	0.0006775	117.218000174
1560.0	0.0006763	117.265000105
1560.0	0.0006723	117.312000036
1560.0	0.0006713	117.343000174
1560.0	0.0006715	117.390000105
1560.0	0.0006723	117.42200017
1560.0	0.0006698	117.468000174
1560.0	0.000669	117.515000105
1560.0	0.000669	117.54700017
1560.0	0.0006715	117.593000174
1560.0	0.000671	117.640000105
1560.0	0.0006675	117.67200017
1560.0	0.0006673	117.718000174
1560.0	0.0006668	117.75
1560.0	0.000669	117.79700017
1560.0	0.0006663	117.843000174
1560.0	0.000666	117.875
1560.0	0.0006653	117.92200017
1560.0	0.0006675	117.968000174
1560.0	0.0006678	118.0
1560.0	0.0006655	118.04700017
1560.0	0.000665	118.078000069
1560.0	0.000665	118.125
1560.0	0.0006675	118.17200017
1560.0	0.0006678	118.203000069
1560.0	0.0006653	118.25
1560.0	0.000665	118.29700017
1560.0	0.0006673	118.328000069
1560.0	0.0006678	118.375
1560.0	0.000666	118.42200017
1560.0	0.0006655	118.453000069
1560.0	0.0006668	118.5
1560.0	0.0006665	118.54700017
1560.0	0.0006688	118.578000069
1560.0	0.0006673	118.625
1560.0	0.0006673	118.67200017
1570.0	0.0006625	118.937000036
1570.0	0.0006573	118.984000206
1570.0	0.0006578	119.015000105
1570.0	0.0006565	119.062000036
1570.0	0.0006535	119.109000206
1570.0	0.0006523	119.140000105
1570.0	0.000651	119.187000036
1570.0	0.0006535	119.234000206
1570.0	0.0006538	119.265000105
1570.0	0.000651	119.312000036
1570.0	0.000651	119.343000174
1570.0	0.00065	119.390000105
1570.0	0.0006523	119.437000036
1570.0	0.0006523	119.468000174
1570.0	0.000651	119.515000105
1570.0	0.0006498	119.562000036
1570.0	0.0006505	119.593000174
1570.0	0.0006515	119.640000105
1570.0	0.0006493	119.687000036
1570.0	0.0006493	119.718000174
1570.0	0.000649	119.765000105
1570.0	0.0006493	119.812000036
1570.0	0.0006505	119.843000174
1570.0	0.000649	119.890000105
1570.0	0.000649	119.92200017
1570.0	0.0006485	119.968000174
1570.0	0.0006505	120.015000105
1570.0	0.000651	120.04700017
1570.0	0.000651	120.093000174
1570.0	0.0006485	120.140000105
1570.0	0.0006478	120.17200017
1570.0	0.0006485	120.218000174
1570.0	0.0006498	120.265000105
1570.0	0.0006468	120.29700017
1570.0	0.0006468	120.343000174
1570.0	0.0006463	120.375
1570.0	0.000649	120.42200017
1580.0	0.000638	120.703000069
1580.0	0.0006368	120.734000206
1580.0	0.0006325	120.781000137
1580.0	0.0006303	120.828000069
1580.0	0.0006308	120.859000206
1580.0	0.0006305	120.906000137
1580.0	0.0006283	120.937000036
1580.0	0.0006275	120.984000206
1580.0	0.0006275	121.031000137
1580.0	0.0006278	121.062000036
1580.0	0.0006293	121.109000206
1580.0	0.000628	121.156000137
1580.0	0.000627	121.187000036
1580.0	0.0006265	121.234000206
1580.0	0.0006275	121.265000105
1580.0	0.0006268	121.312000036
1580.0	0.0006268	121.359000206
1580.0	0.0006268	121.390000105
1580.0	0.0006278	121.437000036
1580.0	0.000629	121.484000206
1580.0	0.0006268	121.515000105
1580.0	0.0006268	121.562000036
1580.0	0.0006263	121.609000206
1580.0	0.0006265	121.640000105
1580.0	0.0006293	121.687000036
1580.0	0.0006288	121.734000206
1580.0	0.0006278	121.765000105
1580.0	0.0006278	121.812000036
1580.0	0.0006275	121.843000174
1580.0	0.0006293	121.890000105
1580.0	0.0006303	121.937000036
1580.0	0.0006275	121.968000174
1580.0	0.0006275	122.015000105
1580.0	0.0006288	122.062000036
1580.0	0.0006288	122.093000174
1580.0	0.0006265	122.140000105
1580.0	0.0006265	122.187000036
1590.0	0.0006165	122.453000069
1590.0	0.0006095	122.5
1590.0	0.000608	122.531000137
1590.0	0.0006055	122.578000069
1590.0	0.0006018	122.625
1590.0	0.000599	122.656000137
1590.0	0.0005995	122.703000069
1590.0	0.0005993	122.75
1590.0	0.0005978	122.781000137
1590.0	0.0005965	122.828000069
1590.0	0.0005963	122.859000206
1590.0	0.0005975	122.906000137
1590.0	0.0005988	122.953000069
1590.0	0.0005975	122.984000206
1590.0	0.0005968	123.031000137
1590.0	0.0005978	123.078000069
1590.0	0.0006	123.109000206
1590.0	0.0005978	123.156000137
1590.0	0.000598	123.187000036
1590.0	0.000598	123.234000206
1590.0	0.0005995	123.281000137
1590.0	0.0006	123.312000036
1590.0	0.000598	123.359000206
1590.0	0.000598	123.406000137
1590.0	0.000598	123.437000036
1590.0	0.0005983	123.484000206
1590.0	0.0006003	123.531000137
1590.0	0.0006	123.562000036
1590.0	0.0005988	123.609000206
1590.0	0.000599	123.656000137
1590.0	0.0005995	123.687000036
1590.0	0.0006	123.734000206
1590.0	0.0005993	123.781000137
1590.0	0.000599	123.812000036
1590.0	0.0005988	123.859000206
1590.0	0.0005993	123.890000105
1590.0	0.0006005	123.937000036
1600.0	0.0005858	124.218000174
1600.0	0.000582	124.25
1600.0	0.000578	124.29700017
1600.0	0.0005763	124.343000174
1600.0	0.0005743	124.375
1600.0	0.0005733	124.42200017
1600.0	0.0005703	124.453000069
1600.0	0.0005675	124.5
1600.0	0.000569	124.54700017
1600.0	0.0005683	124.578000069
1600.0	0.0005675	124.625
1600.0	0.0005655	124.67200017
1600.0	0.000565	124.703000069
1600.0	0.0005665	124.75
1600.0	0.0005668	124.781000137
1600.0	0.000565	124.828000069
1600.0	0.000565	124.875
1600.0	0.0005658	124.906000137
1600.0	0.0005663	124.953000069
1600.0	0.000564	125.0
1600.0	0.0005643	125.031000137
1600.0	0.0005643	125.078000069
1600.0	0.0005643	125.109000206
1600.0	0.0005655	125.156000137
1600.0	0.0005633	125.203000069
1600.0	0.000563	125.234000206
1600.0	0.000563	125.281000137
1600.0	0.000565	125.328000069
1600.0	0.0005653	125.359000206
1600.0	0.0005638	125.406000137
1600.0	0.0005638	125.453000069
1600.0	0.0005638	125.484000206
1600.0	0.0005655	125.531000137
1600.0	0.0005665	125.578000069
1600.0	0.000565	125.609000206
1600.0	0.0005645	125.656000137
1600.0	0.0005645	125.703000069
1610.0	0.0005525	125.968000174
1610.0	0.0005468	126.015000105
1610.0	0.0005438	126.062000036
1610.0	0.0005408	126.093000174
1610.0	0.0005368	126.140000105
1610.0	0.0005345	126.187000036
1610.0	0.0005345	126.218000174
1610.0	0.000535	126.265000105
1610.0	0.000533	126.29700017
1610.0	0.0005318	126.343000174
1610.0	0.0005305	126.390000105
1610.0	0.000532	126.42200017
1610.0	0.0005328	126.468000174
1610.0	0.0005315	126.515000105
1610.0	0.0005308	126.54700017
1610.0	0.0005303	126.593000174
1610.0	0.0005328	126.625
1610.0	0.0005325	126.67200017
1610.0	0.0005313	126.718000174
1610.0	0.0005305	126.75
1610.0	0.0005325	126.79700017
1610.0	0.0005328	126.843000174
1610.0	0.0005305	126.875
1610.0	0.00053	126.92200017
1610.0	0.00053	126.968000174
1610.0	0.0005308	127.0
1610.0	0.0005318	127.04700017
1610.0	0.0005308	127.078000069
1610.0	0.0005303	127.125
1610.0	0.0005295	127.17200017
1610.0	0.0005318	127.203000069
1610.0	0.00053	127.25
1610.0	0.0005313	127.29700017
1610.0	0.00053	127.328000069
1610.0	0.0005308	127.375
1610.0	0.0005308	127.406000137
1610.0	0.00053	127.453000069
1620.0	0.0005125	127.734000206
1620.0	0.000508	127.781000137
1620.0	0.0005038	127.812000036
1620.0	0.0005	127.859000206
1620.0	0.0004988	127.890000105
1620.0	0.0004965	127.937000036
1620.0	0.000493	127.984000206
1620.0	0.0004918	128.031000137
1620.0	0.0004908	128.062000036
1620.0	0.0004915	128.109000206
1620.0	0.0004918	128.140000105
1620.0	0.00049	128.187000036
1620.0	0.0004893	128.234000206
1620.0	0.0004903	128.265000105
1620.0	0.0004908	128.312000036
1620.0	0.0004918	128.359000206
1620.0	0.0004903	128.390000105
1620.0	0.00049	128.437000036
1620.0	0.00049	128.484000206
1620.0	0.0004915	128.515000105
1620.0	0.0004903	128.562000036
1620.0	0.0004893	128.593000174
1620.0	0.0004893	128.640000105
1620.0	0.0004908	128.687000036
1620.0	0.0004913	128.718000174
1620.0	0.00049	128.765000105
1620.0	0.00049	128.812000036
1620.0	0.00049	128.843000174
1620.0	0.0004928	128.890000105
1620.0	0.0004928	128.92200017
1620.0	0.0004913	128.968000174
1620.0	0.0004908	129.015000105
1620.0	0.0004908	129.04700017
1620.0	0.0004928	129.093000174
1620.0	0.0004913	129.140000105
1620.0	0.0004908	129.17200017
1620.0	0.0004905	129.218000174
1630.0	0.0004763	129.5
1630.0	0.0004688	129.54700017
1630.0	0.0004655	129.578000069
1630.0	0.000462	129.625
1630.0	0.0004575	129.67200017
1630.0	0.0004555	129.703000069
1630.0	0.0004538	129.75
1630.0	0.0004525	129.79700017
1630.0	0.0004528	129.828000069
1630.0	0.0004525	129.875
1630.0	0.0004505	129.92200017
1630.0	0.00045	129.953000069
1630.0	0.0004513	130.0
1630.0	0.000452	130.031000137
1630.0	0.0004515	130.078000069
1630.0	0.0004495	130.125
1630.0	0.000449	130.156000137
1630.0	0.0004493	130.203000069
1630.0	0.0004503	130.25
1630.0	0.000448	130.281000137
1630.0	0.000448	130.328000069
1630.0	0.0004475	130.359000206
1630.0	0.000449	130.406000137
1630.0	0.0004495	130.453000069
1630.0	0.000448	130.484000206
1630.0	0.0004478	130.531000137
1630.0	0.0004483	130.578000069
1630.0	0.000449	130.609000206
1630.0	0.0004478	130.656000137
1630.0	0.000448	130.687000036
1630.0	0.0004478	130.734000206
1630.0	0.0004493	130.781000137
1630.0	0.0004495	130.812000036
1630.0	0.0004483	130.859000206
1630.0	0.0004483	130.906000137
1630.0	0.0004488	130.937000036
1630.0	0.0004503	130.984000206
1640.0	0.0004353	131.265000105
1640.0	0.0004278	131.312000036
1640.0	0.0004253	131.359000206
1640.0	0.0004215	131.390000105
1640.0	0.0004178	131.437000036
1640.0	0.0004155	131.468000174
1640.0	0.000413	131.515000105
1640.0	0.0004128	131.562000036
1640.0	0.000412	131.593000174
1640.0	0.0004093	131.640000105
1640.0	0.000409	131.687000036
1640.0	0.000409	131.718000174
1640.0	0.00041	131.765000105
1640.0	0.000408	131.812000036
1640.0	0.0004095	131.859000206
1640.0	0.0004088	131.890000105
1640.0	0.0004088	131.937000036
1640.0	0.0004083	131.968000174
1640.0	0.00041	132.015000105
1640.0	0.00041	132.062000036
1640.0	0.0004083	132.093000174
1640.0	0.000408	132.140000105
1640.0	0.0004078	132.187000036
1640.0	0.0004095	132.218000174
1640.0	0.000408	132.265000105
1640.0	0.0004078	132.29700017
1640.0	0.0004078	132.343000174
1640.0	0.0004083	132.390000105
1640.0	0.000409	132.42200017
1640.0	0.0004078	132.468000174
1640.0	0.0004078	132.515000105
1640.0	0.0004068	132.54700017
1640.0	0.0004083	132.593000174
1640.0	0.000408	132.640000105
1640.0	0.0004068	132.67200017
1640.0	0.0004068	132.718000174
1640.0	0.0004065	132.75
1650.0	0.0003908	133.04700017
1650.0	0.0003845	133.078000069
1650.0	0.00038	133.125
1650.0	0.0003778	133.17200017
1650.0	0.0003753	133.203000069
1650.0	0.0003725	133.25
1650.0	0.0003705	133.29700017
1650.0	0.0003695	133.328000069
1650.0	0.0003695	133.375
1650.0	0.000368	133.42200017
1650.0	0.0003675	133.453000069
1650.0	0.000367	133.5
1650.0	0.0003668	133.531000137
1650.0	0.0003675	133.578000069
1650.0	0.0003658	133.625
1650.0	0.0003655	133.656000137
1650.0	0.0003658	133.703000069
1650.0	0.0003675	133.734000206
1650.0	0.000368	133.781000137
1650.0	0.0003668	133.828000069
1650.0	0.0003668	133.859000206
1650.0	0.0003663	133.906000137
1650.0	0.000368	133.953000069
1650.0	0.000368	133.984000206
1650.0	0.0003668	134.031000137
1650.0	0.000367	134.078000069
1650.0	0.000368	134.109000206
1650.0	0.0003683	134.156000137
1650.0	0.0003675	134.187000036
1650.0	0.000367	134.234000206
1650.0	0.000367	134.281000137
1650.0	0.0003688	134.312000036
1650.0	0.0003683	134.359000206
1650.0	0.000367	134.406000137
1650.0	0.000367	134.437000036
1650.0	0.0003675	134.484000206
1650.0	0.000369	134.515000105
1660.0	0.0003528	134.812000036
1660.0	0.0003455	134.843000174
1660.0	0.000342	134.890000105
1660.0	0.0003388	134.937000036
1660.0	0.000335	134.968000174
1660.0	0.0003325	135.015000105
1660.0	0.0003318	135.062000036
1660.0	0.0003308	135.093000174
1660.0	0.0003305	135.140000105
1660.0	0.0003288	135.17200017
1660.0	0.0003283	135.218000174
1660.0	0.0003275	135.265000105
1660.0	0.0003288	135.29700017
1660.0	0.0003275	135.343000174
1660.0	0.000327	135.390000105
1660.0	0.0003268	135.42200017
1660.0	0.0003268	135.468000174
1660.0	0.0003275	135.515000105
1660.0	0.0003263	135.54700017
1660.0	0.0003258	135.593000174
1660.0	0.0003268	135.625
1660.0	0.0003265	135.67200017
1660.0	0.0003255	135.718000174
1660.0	0.0003253	135.75
1660.0	0.0003253	135.79700017
1660.0	0.0003268	135.843000174
1660.0	0.000327	135.875
1660.0	0.0003258	135.92200017
1660.0	0.0003258	135.953000069
1660.0	0.0003253	136.0
1660.0	0.0003268	136.04700017
1660.0	0.0003263	136.093000174
1660.0	0.000327	136.125
1660.0	0.0003268	136.17200017
1660.0	0.0003265	136.203000069
1660.0	0.0003263	136.25
1660.0	0.000327	136.29700017
1670.0	0.0003155	136.578000069
1670.0	0.0003108	136.625
1670.0	0.0003068	136.656000137
1670.0	0.000303	136.703000069
1670.0	0.0003005	136.734000206
1670.0	0.000298	136.781000137
1670.0	0.0002978	136.828000069
1670.0	0.000297	136.859000206
1670.0	0.0002953	136.906000137
1670.0	0.0002945	136.937000036
1670.0	0.0002943	136.984000206
1670.0	0.0002945	137.031000137
1670.0	0.0002943	137.062000036
1670.0	0.0002943	137.109000206
1670.0	0.000294	137.156000137
1670.0	0.0002945	137.187000036
1670.0	0.000295	137.234000206
1670.0	0.0002933	137.281000137
1670.0	0.000293	137.312000036
1670.0	0.000293	137.359000206
1670.0	0.0002938	137.390000105
1670.0	0.0002928	137.437000036
1670.0	0.0002925	137.484000206
1670.0	0.0002925	137.515000105
1670.0	0.0002928	137.562000036
1670.0	0.000294	137.609000206
1670.0	0.000293	137.640000105
1670.0	0.000293	137.687000036
1670.0	0.0002928	137.718000174
1670.0	0.0002938	137.765000105
1670.0	0.0002925	137.812000036
1670.0	0.000292	137.843000174
1670.0	0.000292	137.890000105
1670.0	0.0002915	137.937000036
1670.0	0.0002925	137.968000174
1670.0	0.0002913	138.015000105
1670.0	0.0002908	138.062000036
1680.0	0.0002775	138.343000174
1680.0	0.000274	138.390000105
1680.0	0.00027	138.42200017
1680.0	0.000267	138.468000174
1680.0	0.000265	138.515000105
1680.0	0.000264	138.54700017
1680.0	0.000263	138.593000174
1680.0	0.0002613	138.640000105
1680.0	0.0002608	138.67200017
1680.0	0.0002603	138.718000174
1680.0	0.0002605	138.75
1680.0	0.0002608	138.79700017
1680.0	0.0002593	138.843000174
1680.0	0.0002595	138.875
1680.0	0.0002603	138.92200017
1680.0	0.0002608	138.968000174
1680.0	0.0002613	139.0
1680.0	0.0002605	139.04700017
1680.0	0.0002603	139.093000174
1680.0	0.0002615	139.125
1680.0	0.0002605	139.17200017
1680.0	0.0002608	139.218000174
1680.0	0.00026	139.25
1680.0	0.00026	139.29700017
1680.0	0.0002603	139.343000174
1680.0	0.0002613	139.375
1680.0	0.0002615	139.42200017
1680.0	0.0002603	139.453000069
1680.0	0.0002603	139.5
1680.0	0.0002603	139.54700017
1680.0	0.0002615	139.578000069
1680.0	0.0002613	139.625
1680.0	0.0002613	139.67200017
1680.0	0.0002605	139.703000069
1680.0	0.0002613	139.75
1680.0	0.0002613	139.781000137
1680.0	0.0002595	139.828000069
1690.0	0.0002483	140.109000206
1690.0	0.000245	140.156000137
1690.0	0.0002408	140.203000069
1690.0	0.0002383	140.234000206
1690.0	0.0002365	140.281000137
1690.0	0.0002358	140.328000069
1690.0	0.0002343	140.359000206
1690.0	0.000233	140.406000137
1690.0	0.0002325	140.437000036
1690.0	0.0002318	140.484000206
1690.0	0.0002318	140.531000137
1690.0	0.0002318	140.562000036
1690.0	0.0002305	140.609000206
1690.0	0.0002305	140.656000137
1690.0	0.0002313	140.687000036
1690.0	0.0002308	140.734000206
1690.0	0.0002315	140.781000137
1690.0	0.0002305	140.812000036
1690.0	0.0002305	140.859000206
1690.0	0.0002313	140.890000105
1690.0	0.0002308	140.937000036
1690.0	0.00023	140.984000206
1690.0	0.0002295	141.015000105
1690.0	0.0002295	141.062000036
1690.0	0.0002305	141.109000206
1690.0	0.00023	141.140000105
1690.0	0.0002295	141.187000036
1690.0	0.0002295	141.218000174
1690.0	0.0002295	141.265000105
1690.0	0.0002305	141.312000036
1690.0	0.00023	141.343000174
1690.0	0.00023	141.390000105
1690.0	0.0002295	141.437000036
1690.0	0.0002305	141.468000174
1690.0	0.00023	141.515000105
1690.0	0.0002293	141.54700017
1690.0	0.00023	141.593000174
1700.0	0.0002205	141.875
1700.0	0.0002183	141.92200017
1700.0	0.000215	141.968000174
1700.0	0.000213	142.0
1700.0	0.0002118	142.04700017
1700.0	0.0002105	142.093000174
1700.0	0.0002088	142.125
1700.0	0.000208	142.17200017
1700.0	0.000207	142.218000174
1700.0	0.0002078	142.25
1700.0	0.0002078	142.29700017
1700.0	0.0002068	142.328000069
1700.0	0.0002065	142.375
1700.0	0.0002065	142.42200017
1700.0	0.000207	142.453000069
1700.0	0.0002065	142.5
1700.0	0.0002065	142.54700017
1700.0	0.0002068	142.578000069
1700.0	0.000207	142.625
1700.0	0.000207	142.656000137
1700.0	0.0002065	142.703000069
1700.0	0.0002063	142.75
1700.0	0.0002058	142.781000137
1700.0	0.0002065	142.828000069
1700.0	0.0002058	142.875
1700.0	0.0002058	142.906000137
1700.0	0.0002055	142.953000069
1700.0	0.0002058	142.984000206
1700.0	0.0002058	143.031000137
1700.0	0.0002053	143.078000069
1700.0	0.0002053	143.125
1700.0	0.000205	143.156000137
1700.0	0.0002053	143.203000069
1700.0	0.0002058	143.234000206
1700.0	0.0002055	143.281000137
1700.0	0.0002045	143.328000069
1700.0	0.0002043	143.359000206
1710.0	0.0002188	335.656000137
1710.0	0.0002188	335.703000069
1710.0	0.0002188	335.75
1710.0	0.000219	335.781000137
1710.0	0.0002195	335.828000069
1710.0	0.0002188	335.859000206
1710.0	0.0002188	335.906000137
1710.0	0.0002188	335.953000069
1710.0	0.0002195	335.984000206
1710.0	0.0002188	336.031000137
1710.0	0.0002183	336.078000069
1710.0	0.0002188	336.109000206
1710.0	0.000219	336.156000137
1710.0	0.0002193	336.203000069
1710.0	0.000219	336.234000206
1710.0	0.0002188	336.281000137
1710.0	0.0002183	336.312000036
1710.0	0.000219	336.359000206
1710.0	0.00022	336.406000137
1710.0	0.0002193	336.437000036
1710.0	0.0002193	336.484000206
1710.0	0.0002193	336.531000137
1710.0	0.00022	336.562000036
1710.0	0.0002205	336.609000206
1710.0	0.00022	336.640000105
1710.0	0.00022	336.687000036
1710.0	0.0002203	336.734000206
1710.0	0.0002213	336.765000105
1710.0	0.0002205	336.812000036
1710.0	0.0002203	336.859000206
1710.0	0.00022	336.890000105
1710.0	0.0002213	336.937000036
1710.0	0.0002205	336.984000206
1710.0	0.0002208	337.015000105
1710.0	0.00022	337.062000036
1710.0	0.0002203	337.109000206
1710.0	0.0002213	337.140000105
