Your edit line - do NOT delete this line
Wavelength [nm], Slit width [mm], Voltage [V], Elapsed time [s]
800.0	0.6	7.55e-05	18.0940001011
810.0	0.6	8.2e-05	19.4370000362
820.0	0.6	8.9e-05	20.7810001373
830.0	0.6	9.63e-05	22.1089999676
840.0	0.6	0.0001063	23.4220001698
850.0	0.6	0.0001168	24.75
860.0	0.6	0.00013	26.0470001698
870.0	0.6	0.0001433	27.3589999676
880.0	0.6	0.00016	28.6560001373
890.0	0.6	0.0001788	29.9530000687
900.0	0.6	0.0001988	31.2339999676
910.0	0.6	0.0002213	32.5310001373
920.0	0.6	0.0002465	33.8120000362
930.0	0.6	0.0002745	35.0940001011
940.0	0.6	0.0003018	36.3440001011
950.0	0.6	0.0003313	37.5780000687
960.0	0.6	0.0003605	38.8440001011
970.0	0.6	0.00039	40.1089999676
980.0	0.6	0.0004205	41.375
990.0	0.6	0.00045	42.6410000324
1000.0	0.6	0.0004788	43.9060001373
1010.0	0.6	0.0005075	45.1870000362
1020.0	0.6	0.0005363	46.4530000687
1030.0	0.6	0.0005655	47.7030000687
1040.0	0.6	0.000593	48.9690001011
1050.0	0.6	0.0006208	50.2339999676
1060.0	0.6	0.0006478	51.4839999676
1070.0	0.6	0.000674	52.75
1080.0	0.6	0.0006998	53.9690001011
1090.0	0.6	0.0007185	55.2190001011
1100.0	0.6	0.0007355	56.4690001011
1110.0	0.6	0.0007525	57.7190001011
1120.0	0.6	0.000765	58.9839999676
1130.0	0.6	0.0007728	60.2339999676
1140.0	0.6	0.000778	61.4839999676
1150.0	0.6	0.0007813	62.7339999676
1160.0	0.6	0.0007813	64.0
1170.0	0.6	0.000779	65.25
1180.0	0.6	0.0007763	66.5
1190.0	0.6	0.0007763	67.75
1200.0	0.6	0.0007763	69.0
1210.0	0.6	0.000779	70.2660000324
1220.0	0.6	0.000784	71.5160000324
1230.0	0.6	0.0007915	72.7660000324
1240.0	0.6	0.0008048	74.0160000324
1250.0	0.6	0.000818	75.2660000324
1260.0	0.6	0.0008335	76.5160000324
1270.0	0.6	0.000848	77.7660000324
1280.0	0.6	0.000861	79.0310001373
1290.0	0.6	0.0008713	80.2810001373
1300.0	0.6	0.0008765	81.5310001373
1310.0	0.6	0.0008765	82.7810001373
1320.0	0.6	0.000868	84.0310001373
1330.0	0.6	0.000851	85.2810001373
1340.0	0.6	0.0008263	86.5310001373
1350.0	0.6	0.0007938	87.7810001373
1360.0	0.6	0.0007568	89.0310001373
1370.0	0.6	0.0007175	90.2810001373
1380.0	0.6	0.0006755	91.5310001373
1390.0	0.6	0.000638	92.7810001373
1400.0	0.6	0.0006063	94.0310001373
1410.0	0.6	0.000579	95.25
1420.0	0.6	0.0005553	96.4839999676
1430.0	0.6	0.00054	97.7339999676
1440.0	0.6	0.00053	98.9839999676
1450.0	0.6	0.0005268	100.233999968
1460.0	0.6	0.0005293	101.483999968
1470.0	0.6	0.0005368	102.733999968
1480.0	0.6	0.0005475	103.983999968
1490.0	0.6	0.00056	105.25
1500.0	0.6	0.0005688	106.5
1510.0	0.6	0.000575	107.75
1520.0	0.6	0.00058	109.016000032
1530.0	0.6	0.0005828	110.266000032
1540.0	0.6	0.000583	111.516000032
1550.0	0.6	0.000578	112.781000137
1560.0	0.6	0.0005715	114.031000137
1570.0	0.6	0.0005588	115.29700017
1580.0	0.6	0.0005418	116.54700017
1590.0	0.6	0.0005183	117.812000036
1600.0	0.6	0.0004918	119.078000069
1610.0	0.6	0.0004605	120.328000069
1620.0	0.6	0.0004288	121.594000101
1630.0	0.6	0.000392	122.858999968
1640.0	0.6	0.0003563	124.125
1650.0	0.6	0.0003195	125.391000032
1660.0	0.6	0.000283	126.656000137
1670.0	0.6	0.0002518	127.937000036
1680.0	0.6	0.0002208	129.17200017
1690.0	0.6	0.000194	130.391000032
1700.0	0.6	0.0001718	131.67200017
1710.0	0.6	0.0001525	132.937000036
1720.0	0.6	0.000135	134.219000101
1730.0	0.6	0.0001203	135.483999968
1740.0	0.6	0.0001075	136.75
1750.0	0.6	9.68e-05	138.016000032
1760.0	0.6	8.78e-05	139.29700017
1770.0	0.6	7.93e-05	140.562000036
1780.0	0.6	7.05e-05	141.844000101
1790.0	0.6	6.3e-05	143.108999968
1800.0	0.6	5.63e-05	144.391000032
