Your edit line - do NOT delete this line
Wavelength [nm], Slit width [mm], Voltage [V], Elapsed time [s]
1000.0	0.1	7.67765391674504	2.1174042224884033
1000.0	0.2	2.8756222907215943	4.226038455963135
1000.0	0.3	3.819021678448986	6.3484046459198
1000.0	0.4	9.840638602989635	8.476466655731201
1000.0	0.5	2.234871475868264	10.587620973587036
1000.0	0.6	5.0725750081455026	12.69967007637024
1000.0	0.7	1.768304698358537	14.830705165863037
1000.0	0.8	4.4008119768250475	16.949028253555298
1000.0	0.9	3.3530347339981703	19.056700706481934
1000.0	1.0	0.8037931138676135	21.166472673416138
